Part protocol
File name;Part_Cali_MP-001_2019-10-17_10-40-05__NOK.csv
Protocol version;6.00.03

Index;Result information;Process values - curve related;Process values - EO related;Evaluation objects settings;Switch signal settings;Device information;Servo;Channel-X settings;Channel-Y settings;Cycle control settings;Evaluation settings;Trigger Y settings;Block settings;Measuring curve;Measuring points;Sequence;
Line;10;30;40;70;100;120;140;150;190;220;240;250;260;270;280;2510;



Result information
Date;2019/10/17
Time;10:40:05
Cycle number;120
Total result;NOK
Triggered switch signals;
Part serial number;
Measuring program name;-----
Measuring program number;1
Zero X offset;0.00;s
Tara Y offset;0.000;Kn









Process values - curve related
Block X;221.75;s;XMIN-X;0.00;s
Block Y;0.000;Kn;XMIN-Y;0.001;Kn
Ref X;38.74;s;XMAX-X;221.75;s
Peak-peak X;221.75;s;XMAX-Y;0.000;Kn
Peak-peak Y;0.511;Kn;YMIN-X;203.10;s
;;;YMIN-Y;-0.019;Kn
;;;YMAX-X;193.62;s
;;;YMAX-Y;0.491;Kn

Process values - EO related;Result;Entry;Exit;XMIN-X;XMIN-Y;XMAX-X;XMAX-Y;YMIN-Y;YMIN-X;YMAX-Y;YMAX-X;Calculated result;NOK cause;Violation X;Violation Y;Ref X;Ref Y;X at Delta-Y;Entrance-X;Entrance-Y;Exit-X;Exit-Y
;;;;s;Kn;s;Kn;Kn;s;Kn;s;-;-;s;Kn;s;Kn;s;s;Kn;s;Kn
EO-01;None;
EO-02;None;
EO-03;None;
EO-04;None;
EO-05;None;
EO-06;None;
EO-07;None;
EO-08;None;
EO-09;None;
EO-10;None;


















Evaluation objects settings;Reaction;X reference;Y-Reference;XMin;XMax;YMin;YMax;Entry;Exit;Curve part;Catch zone X;Catch zone Y;EO Name;Description;Re-entry ignored;Generate statistics;X-Hysteresis;Y-Hysteresis;Down sampling rate;Calc limit min;Calc limit max;Grad limit min;Grad limit max;Hyst limit min;Hyst limit max;Speed limit min;Speed limit max;Time limit min;Time limit max;Is curve inside box;GetRef type;CalcInput1 | dx;CalcInput2 | dx;Calc operation;Work limit min;Work limit max;Average limit min;Average limit max;Max bending;Detection dX;Signal;Operation;State;Visualization offset X;Visualization offset Y;Delta-Y Max;X1Min;X1Max;X2Min;X2Max;Y1Min;Y1Max;Y2Min;Y2Max;-
EO-01;OFF
EO-02;OFF
EO-03;OFF
EO-04;OFF
EO-05;OFF
EO-06;OFF
EO-07;OFF
EO-08;OFF
EO-09;OFF
EO-10;OFF



















Switch signal settings;Channel;Threshold at;;Trigger from;Reference;Latch until
Type S1;OFF
Type S2;OFF

















Device information
Device type;maXYmos NC
Device type number;5847B0
Device serial number;05524NC
Firmware version;1.5.60 (r483ab8)
-
-
-
-
-
IP Address;192.168.1.22
Network name;Cali
Profibus address;10
-
-
-
Device name;Cali
Company name;
Comment;

Servo
Servo version;n/a;Servo max. speed;300.000;mm/s
Type NC Joining Module;n/a;Range min.;0.00;mm
Serial number NC j.mod.;n/a;Range max.;138.00;mm
Brake;Holding Brake 0.00 Nm;Servo reference position;0.00;mm
Operating mode;Manual Work;Max. jog speed;10.000;mm/s
Brake test;Disabled;Jog. range min;0.00;mm
Automatic power;False;Jog. range max;400.00;mm
;;Reference speed;10.000;mm/s

Channel-X settings
Use the settings from global setup;True
Sensor-X type;±10V
Unit;mm
Used range from;0.00;mm
Used range to;400.00;mm
Decimal places;2 (iiiii.ff)
Scaling by;Teach-In
Point 1;0.00;mm;0.000;%
Point 2;100.00;mm;100.000;%
Invert signal;FALSE
Filter;500 Hz
Test point;0.00;mm
Tolerance;2.00;mm
Enable sensor test by dig-input;TRUE
Zoom from;0.00;mm
Zoom to;100.00;mm
Master Measurement Enable;FALSE
Master Measurement Nominal Position;0.00;mm
Encoder interpolation factor;-
Encoder electrical interface;-
Encoder referencing type;-
Encoder referencing edge;-
Encoder pulses per minute;-
Encoder use every nth-mark;-
Reference;-
Encoder reference points;-
Encoder coding;-
Encoder width;-
Encoder optimization;-
Encoder clock frequency;-
Termination resistor;-








Channel-Y settings
Use the settings from global setup;True
Sensor-Y type;±10V
Unit;Kn
Used range from;0.000;Kn
Used range to;30.000;Kn
Decimal places;3 (iiii.fff)
Scaling by;Calibration Sheet
Sensitivity;1000.000;Kn;-4.000;V
Zero point;0.000;Kn;0.000;V
Invert signal;FALSE
Filter;OFF
Piezo reset;-
Test point;0.000;Kn
Tolerance;0.100;Kn
Enable sensor test by dig-input;FALSE
Zoom from;0.000;Kn
Zoom to;1000.000;Kn












Cycle control settings
Use the settings from global setup;True
Measuring function;Y (t)
Delta-X;User-Defined;0.1000;s
START condition;Dig-Input
STOP condition;Dig-Input
Cycle time out;500.000;s
Gradient Delta X;-












Evaluation settings
Capture only first NOK-EO for statistics;False
Hysteresis-X;0.0;%
Hysteresis-Y;0.0;%






Trigger Y settings
Threshold;0.000;Kn
Value X at Trigger Y;0.00;s
Approach from;BELOW






Block settings
Value X at block;XMAX
Block at;0.00;s







Measuring curve
Number of measuring points;2220
Ref. Graph on;ABSOLUTE
Curve segment;0;2220;


Time;X(ABSOLUTE);Y;X(ABSOLUTE)


s;s;Kn;s
0.0001;0.00010;0.00061;0.00010
0.1000;0.10003;0.00132;0.10003
0.2001;0.20006;0.00106;0.20006
0.3001;0.30009;0.00106;0.30009
0.4001;0.40012;0.00113;0.40012
0.5001;0.50014;0.00094;0.50014
0.6002;0.60017;0.00084;0.60017
0.7002;0.70020;0.00098;0.70020
0.8002;0.80023;0.00119;0.80023
0.9003;0.90026;0.00143;0.90026
1.0003;1.00029;0.00139;1.00029
1.1003;1.10032;0.00124;1.10032
1.2003;1.20035;0.00109;1.20035
1.3004;1.30037;0.00126;1.30037
1.4004;1.40040;0.00131;1.40040
1.5004;1.50043;0.00143;1.50043
1.6005;1.60046;0.00146;1.60046
1.7005;1.70049;0.00134;1.70049
1.8005;1.80052;0.00106;1.80052
1.9005;1.90055;0.00128;1.90055
2.0006;2.00058;0.00133;2.00058
2.1006;2.10060;0.00145;2.10060
2.2006;2.20063;0.00121;2.20063
2.3007;2.30066;0.00128;2.30066
2.4007;2.40069;0.00112;2.40069
2.5007;2.50072;0.00088;2.50072
2.6007;2.60075;0.00158;2.60075
2.7008;2.70078;0.00090;2.70078
2.8008;2.80081;0.00135;2.80081
2.9008;2.90084;0.00079;2.90084
3.0009;3.00086;0.00128;3.00086
3.1009;3.10089;0.00128;3.10089
3.2009;3.20092;0.00156;3.20092
3.3010;3.30095;0.00140;3.30095
3.4010;3.40098;0.00138;3.40098
3.5010;3.50101;0.00118;3.50101
3.6010;3.60104;0.00124;3.60104
3.7011;3.70107;0.00161;3.70107
3.8011;3.80109;0.00107;3.80109
3.9011;3.90112;0.00121;3.90112
4.0012;4.00115;0.00134;4.00115
4.1012;4.10118;0.00131;4.10118
4.2012;4.20121;0.00137;4.20121
4.3012;4.30124;0.00128;4.30124
4.4013;4.40127;0.00118;4.40127
4.5013;4.50130;0.00139;4.50130
4.6013;4.60132;0.00105;4.60132
4.7014;4.70135;0.00120;4.70135
4.8014;4.80138;0.00153;4.80138
4.9014;4.90141;0.00133;4.90141
5.0014;5.00144;0.00127;5.00144
5.1015;5.10147;0.00158;5.10147
5.2015;5.20150;0.00145;5.20150
5.3015;5.30153;0.00148;5.30153
5.4016;5.40156;0.00128;5.40156
5.5016;5.50158;0.00069;5.50158
5.6016;5.60161;0.00101;5.60161
5.7016;5.70164;0.00103;5.70164
5.8017;5.80167;0.00108;5.80167
5.9017;5.90170;0.00139;5.90170
6.0017;6.00173;0.00094;6.00173
6.1018;6.10176;0.00149;6.10176
6.2018;6.20179;0.00109;6.20179
6.3018;6.30181;0.00138;6.30181
6.4018;6.40184;0.00177;6.40184
6.5019;6.50187;0.00153;6.50187
6.6019;6.60190;0.00089;6.60190
6.7019;6.70193;0.00127;6.70193
6.8020;6.80196;0.00161;6.80196
6.9020;6.90199;0.00113;6.90199
7.0020;7.00202;0.00135;7.00202
7.1020;7.10204;0.00143;7.10204
7.2021;7.20207;0.00115;7.20207
7.3021;7.30210;0.00151;7.30210
7.4021;7.40213;0.00138;7.40213
7.5022;7.50216;0.00103;7.50216
7.6022;7.60219;0.00120;7.60219
7.7022;7.70222;0.00133;7.70222
7.8022;7.80225;0.00097;7.80225
7.9023;7.90228;0.00103;7.90228
8.0023;8.00230;0.00159;8.00230
8.1023;8.10233;0.00094;8.10233
8.2024;8.20236;0.00135;8.20236
8.3024;8.30239;0.00140;8.30239
8.4024;8.40242;0.00134;8.40242
8.5024;8.50245;0.00165;8.50245
8.6025;8.60248;0.00127;8.60248
8.7025;8.70251;0.00135;8.70251
8.8025;8.80253;0.00180;8.80253
8.9026;8.90256;0.00131;8.90256
9.0026;9.00259;0.00148;9.00259
9.1026;9.10262;0.00147;9.10262
9.2026;9.20265;0.00161;9.20265
9.3027;9.30268;0.00136;9.30268
9.4027;9.40271;0.00098;9.40271
9.5027;9.50274;0.00142;9.50274
9.6028;9.60276;0.00147;9.60276
9.7028;9.70279;0.00128;9.70279
9.8028;9.80282;0.00112;9.80282
9.9029;9.90285;0.00085;9.90285
10.0029;10.00288;0.00097;10.00288
10.1029;10.10291;0.00133;10.10291
10.2029;10.20294;0.00135;10.20294
10.3030;10.30297;0.00099;10.30297
10.4030;10.40300;0.00128;10.40300
10.5030;10.50302;0.00113;10.50302
10.6031;10.60305;0.00135;10.60305
10.7031;10.70308;0.00109;10.70308
10.8031;10.80311;0.00112;10.80311
10.9031;10.90314;0.00114;10.90314
11.0032;11.00317;0.00081;11.00317
11.1032;11.10320;0.00108;11.10320
11.2032;11.20323;0.00094;11.20323
11.3033;11.30325;0.00107;11.30325
11.4033;11.40328;0.00112;11.40328
11.5033;11.50331;0.00162;11.50331
11.6033;11.60334;0.00126;11.60334
11.7034;11.70337;0.00152;11.70337
11.8034;11.80340;0.00126;11.80340
11.9034;11.90343;0.00128;11.90343
12.0035;12.00346;0.00090;12.00346
12.1035;12.10348;0.00119;12.10348
12.2035;12.20351;0.00140;12.20351
12.3035;12.30354;0.00091;12.30354
12.4036;12.40357;0.00145;12.40357
12.5036;12.50360;0.00094;12.50360
12.6036;12.60363;0.00090;12.60363
12.7037;12.70366;0.00082;12.70366
12.8037;12.80369;0.00095;12.80369
12.9037;12.90372;0.00121;12.90372
13.0037;13.00374;0.00156;13.00374
13.1038;13.10377;0.00102;13.10377
13.2038;13.20380;0.00090;13.20380
13.3038;13.30383;0.00109;13.30383
13.4039;13.40386;0.00097;13.40386
13.5039;13.50389;0.00115;13.50389
13.6039;13.60392;0.00128;13.60392
13.7039;13.70395;0.00129;13.70395
13.8040;13.80397;0.00081;13.80397
13.9040;13.90400;0.00096;13.90400
14.0040;14.00403;0.00141;14.00403
14.1041;14.10406;0.00127;14.10406
14.2041;14.20409;0.00092;14.20409
14.3041;14.30412;0.00120;14.30412
14.4041;14.40415;0.00105;14.40415
14.5042;14.50418;0.00066;14.50418
14.6042;14.60420;0.00110;14.60420
14.7042;14.70423;0.00085;14.70423
14.8043;14.80426;0.00105;14.80426
14.9043;14.90429;0.00119;14.90429
15.0043;15.00432;0.00128;15.00432
15.1043;15.10435;0.00085;15.10435
15.2044;15.20438;0.00115;15.20438
15.3044;15.30441;0.00092;15.30441
15.4044;15.40444;0.00088;15.40444
15.5045;15.50446;0.00110;15.50446
15.6045;15.60449;0.00125;15.60449
15.7045;15.70452;0.00078;15.70452
15.8046;15.80455;0.00132;15.80455
15.9046;15.90458;0.00099;15.90458
16.0046;16.00461;0.00113;16.00461
16.1046;16.10464;0.00093;16.10464
16.2047;16.20467;0.00103;16.20467
16.3047;16.30469;0.00077;16.30469
16.4047;16.40472;0.00124;16.40472
16.5048;16.50475;0.00110;16.50475
16.6048;16.60478;0.00125;16.60478
16.7048;16.70481;0.00107;16.70481
16.8048;16.80484;0.00128;16.80484
16.9049;16.90487;0.00101;16.90487
17.0049;17.00490;0.00082;17.00490
17.1049;17.10492;0.00088;17.10492
17.2050;17.20495;0.00098;17.20495
17.3050;17.30498;0.00103;17.30498
17.4050;17.40501;0.00098;17.40501
17.5050;17.50504;0.00114;17.50504
17.6051;17.60507;0.00128;17.60507
17.7051;17.70510;0.00114;17.70510
17.8051;17.80513;0.00122;17.80513
17.9052;17.90516;0.00082;17.90516
18.0052;18.00518;0.00102;18.00518
18.1052;18.10521;0.00128;18.10521
18.2052;18.20524;0.00090;18.20524
18.3053;18.30527;0.00102;18.30527
18.4053;18.40530;0.00077;18.40530
18.5053;18.50533;0.00134;18.50533
18.6054;18.60536;0.00107;18.60536
18.7054;18.70539;0.00143;18.70539
18.8054;18.80541;0.00111;18.80541
18.9054;18.90544;0.00096;18.90544
19.0055;19.00547;0.00110;19.00547
19.1055;19.10550;0.00090;19.10550
19.2055;19.20553;0.00058;19.20553
19.3056;19.30556;0.00101;19.30556
19.4056;19.40559;0.00108;19.40559
19.5056;19.50562;0.00113;19.50562
19.6056;19.60564;0.00102;19.60564
19.7057;19.70567;0.00129;19.70567
19.8057;19.80570;0.00108;19.80570
19.9057;19.90573;0.00115;19.90573
20.0058;20.00576;0.00110;20.00576
20.1058;20.10579;0.00093;20.10579
20.2058;20.20582;0.00139;20.20582
20.3058;20.30585;0.00113;20.30585
20.4059;20.40588;0.00093;20.40588
20.5059;20.50590;0.00078;20.50590
20.6059;20.60593;0.00094;20.60593
20.7060;20.70596;0.00135;20.70596
20.8060;20.80599;0.00123;20.80599
20.9060;20.90602;0.00118;20.90602
21.0060;21.00605;0.00111;21.00605
21.1061;21.10608;0.00077;21.10608
21.2061;21.20611;0.00078;21.20611
21.3061;21.30613;0.00122;21.30613
21.4062;21.40616;0.00072;21.40616
21.5062;21.50619;0.00092;21.50619
21.6062;21.60622;0.00118;21.60622
21.7062;21.70625;0.00116;21.70625
21.8063;21.80628;0.00104;21.80628
21.9063;21.90631;0.00124;21.90631
22.0063;22.00634;0.00108;22.00634
22.1064;22.10636;0.00109;22.10636
22.2064;22.20639;0.00078;22.20639
22.3064;22.30642;0.00071;22.30642
22.4065;22.40645;0.00120;22.40645
22.5065;22.50648;0.00110;22.50648
22.6065;22.60651;0.00109;22.60651
22.7065;22.70654;0.00049;22.70654
22.8066;22.80657;0.00106;22.80657
22.9066;22.90659;0.00109;22.90659
23.0066;23.00662;0.00141;23.00662
23.1067;23.10665;0.00087;23.10665
23.2067;23.20668;0.00085;23.20668
23.3067;23.30671;0.00092;23.30671
23.4067;23.40674;0.00112;23.40674
23.5068;23.50677;0.00123;23.50677
23.6068;23.60680;0.00076;23.60680
23.7068;23.70683;0.00081;23.70683
23.8069;23.80685;0.00097;23.80685
23.9069;23.90688;0.00094;23.90688
24.0069;24.00691;0.00079;24.00691
24.1069;24.10694;0.00141;24.10694
24.2070;24.20697;0.00147;24.20697
24.3070;24.30700;0.00105;24.30700
24.4070;24.40703;0.00125;24.40703
24.5071;24.50706;0.00084;24.50706
24.6071;24.60708;0.00094;24.60708
24.7071;24.70711;0.00091;24.70711
24.8071;24.80714;0.00096;24.80714
24.9072;24.90717;0.00112;24.90717
25.0072;25.00720;0.00103;25.00720
25.1072;25.10723;0.00095;25.10723
25.2073;25.20726;0.00116;25.20726
25.3073;25.30729;0.00118;25.30729
25.4073;25.40731;0.00116;25.40731
25.5073;25.50734;0.00113;25.50734
25.6074;25.60737;0.00115;25.60737
25.7074;25.70740;0.00089;25.70740
25.8074;25.80743;0.00141;25.80743
25.9075;25.90746;0.00130;25.90746
26.0075;26.00749;0.00123;26.00749
26.1075;26.10752;0.00117;26.10752
26.2075;26.20755;0.00117;26.20755
26.3076;26.30757;0.00124;26.30757
26.4076;26.40760;0.00167;26.40760
26.5076;26.50763;0.00113;26.50763
26.6077;26.60766;0.00059;26.60766
26.7077;26.70769;0.00081;26.70769
26.8077;26.80772;0.00124;26.80772
26.9077;26.90775;0.00096;26.90775
27.0078;27.00778;0.00083;27.00778
27.1078;27.10780;0.00141;27.10780
27.2078;27.20783;0.00081;27.20783
27.3079;27.30786;0.00109;27.30786
27.4079;27.40789;0.00115;27.40789
27.5079;27.50792;0.00095;27.50792
27.6079;27.60795;0.00106;27.60795
27.7080;27.70798;0.00103;27.70798
27.8080;27.80801;0.00111;27.80801
27.9080;27.90803;0.00104;27.90803
28.0081;28.00806;0.00072;28.00806
28.1081;28.10809;0.00101;28.10809
28.2081;28.20812;0.00088;28.20812
28.3082;28.30815;0.00123;28.30815
28.4082;28.40818;0.00104;28.40818
28.5082;28.50821;0.00097;28.50821
28.6082;28.60824;0.00078;28.60824
28.7083;28.70827;0.00129;28.70827
28.8083;28.80829;0.00115;28.80829
28.9083;28.90832;0.00157;28.90832
29.0084;29.00835;0.00106;29.00835
29.1084;29.10838;0.00121;29.10838
29.2084;29.20841;0.00083;29.20841
29.3084;29.30844;0.00108;29.30844
29.4085;29.40847;0.00081;29.40847
29.5085;29.50850;0.00097;29.50850
29.6085;29.60852;0.00079;29.60852
29.7086;29.70855;0.00092;29.70855
29.8086;29.80858;0.00111;29.80858
29.9086;29.90861;0.00125;29.90861
30.0086;30.00864;0.00100;30.00864
30.1087;30.10867;0.00107;30.10867
30.2087;30.20870;0.00105;30.20870
30.3087;30.30873;0.00091;30.30873
30.4088;30.40875;0.00122;30.40875
30.5088;30.50878;0.00105;30.50878
30.6088;30.60881;0.00119;30.60881
30.7088;30.70884;0.00049;30.70884
30.8089;30.80887;0.00109;30.80887
30.9089;30.90890;0.00110;30.90890
31.0089;31.00893;0.00105;31.00893
31.1090;31.10896;0.00110;31.10896
31.2090;31.20899;0.00128;31.20899
31.3090;31.30901;0.00127;31.30901
31.4090;31.40904;0.00153;31.40904
31.5091;31.50907;0.00102;31.50907
31.6091;31.60910;0.00073;31.60910
31.7091;31.70913;0.00073;31.70913
31.8092;31.80916;0.00113;31.80916
31.9092;31.90919;0.00138;31.90919
32.0092;32.00922;0.00085;32.00922
32.1092;32.10924;0.00099;32.10924
32.2093;32.20927;0.00090;32.20927
32.3093;32.30930;0.00099;32.30930
32.4093;32.40933;0.00094;32.40933
32.5094;32.50936;0.00105;32.50936
32.6094;32.60939;0.00114;32.60939
32.7094;32.70942;0.00085;32.70942
32.8094;32.80945;0.00109;32.80945
32.9095;32.90947;0.00131;32.90947
33.0095;33.00950;0.00110;33.00950
33.1095;33.10953;0.00113;33.10953
33.2096;33.20956;0.00105;33.20956
33.3096;33.30959;0.00093;33.30959
33.4096;33.40962;0.00105;33.40962
33.5096;33.50965;0.00114;33.50965
33.6097;33.60968;0.00110;33.60968
33.7097;33.70971;0.00086;33.70971
33.8097;33.80973;0.00081;33.80973
33.9098;33.90976;0.00104;33.90976
34.0098;34.00979;0.00144;34.00979
34.1098;34.10982;0.00131;34.10982
34.2098;34.20985;0.00099;34.20985
34.3099;34.30988;0.00120;34.30988
34.4099;34.40991;0.00100;34.40991
34.5099;34.50994;0.00102;34.50994
34.6100;34.60996;0.00107;34.60996
34.7100;34.70999;0.00104;34.70999
34.8100;34.81002;0.00111;34.81002
34.9101;34.91005;0.00120;34.91005
35.0101;35.01008;0.00124;35.01008
35.1101;35.11011;0.00106;35.11011
35.2101;35.21014;0.00103;35.21014
35.3102;35.31017;0.00100;35.31017
35.4102;35.41019;0.00100;35.41019
35.5102;35.51022;0.00089;35.51022
35.6103;35.61025;0.00119;35.61025
35.7103;35.71028;0.00116;35.71028
35.8103;35.81031;0.00072;35.81031
35.9103;35.91034;0.00074;35.91034
36.0104;36.01037;0.00114;36.01037
36.1104;36.11040;0.00098;36.11040
36.2104;36.21043;0.00103;36.21043
36.3105;36.31045;0.00105;36.31045
36.4105;36.41048;0.00117;36.41048
36.5105;36.51051;0.00068;36.51051
36.6105;36.61054;0.00091;36.61054
36.7106;36.71057;0.00117;36.71057
36.8106;36.81060;0.00131;36.81060
36.9106;36.91063;0.00083;36.91063
37.0107;37.01066;0.00098;37.01066
37.1107;37.11068;0.00098;37.11068
37.2107;37.21071;0.00100;37.21071
37.3107;37.31074;0.00119;37.31074
37.4108;37.41077;0.00120;37.41077
37.5108;37.51080;0.00120;37.51080
37.6108;37.61083;0.00096;37.61083
37.7109;37.71086;0.00108;37.71086
37.8109;37.81089;0.00092;37.81089
37.9109;37.91091;0.00114;37.91091
38.0109;38.01094;0.00087;38.01094
38.1110;38.11097;0.00085;38.11097
38.2110;38.21100;0.00079;38.21100
38.3110;38.31103;0.00095;38.31103
38.4111;38.41106;0.00100;38.41106
38.5111;38.51109;0.00108;38.51109
38.6111;38.61112;0.00082;38.61112
38.7111;38.71115;0.00083;38.71115
38.8112;38.81117;0.00110;38.81117
38.9112;38.91120;0.00070;38.91120
39.0112;39.01123;0.00094;39.01123
39.1113;39.11126;0.00058;39.11126
39.2113;39.21129;0.00111;39.21129
39.3113;39.31132;0.00115;39.31132
39.4113;39.41135;0.00079;39.41135
39.5114;39.51138;0.00135;39.51138
39.6114;39.61140;0.00110;39.61140
39.7114;39.71143;0.00122;39.71143
39.8115;39.81146;0.00102;39.81146
39.9115;39.91149;0.00067;39.91149
40.0115;40.01152;0.00111;40.01152
40.1115;40.11155;0.00087;40.11155
40.2116;40.21158;0.00091;40.21158
40.3116;40.31161;0.00099;40.31161
40.4116;40.41163;0.00080;40.41163
40.5117;40.51166;0.00113;40.51166
40.6117;40.61169;0.00118;40.61169
40.7117;40.71172;0.00102;40.71172
40.8118;40.81175;0.00147;40.81175
40.9118;40.91178;0.00107;40.91178
41.0118;41.01181;0.00085;41.01181
41.1118;41.11184;0.00107;41.11184
41.2119;41.21187;0.00118;41.21187
41.3119;41.31189;0.00123;41.31189
41.4119;41.41192;0.00137;41.41192
41.5120;41.51195;0.00077;41.51195
41.6120;41.61198;0.00083;41.61198
41.7120;41.71201;0.00140;41.71201
41.8120;41.81204;0.00077;41.81204
41.9121;41.91207;0.00104;41.91207
42.0121;42.01210;0.00096;42.01210
42.1121;42.11212;0.00091;42.11212
42.2122;42.21215;0.00098;42.21215
42.3122;42.31218;0.00083;42.31218
42.4122;42.41221;0.00105;42.41221
42.5122;42.51224;0.00091;42.51224
42.6123;42.61227;0.00067;42.61227
42.7123;42.71230;0.00117;42.71230
42.8123;42.81233;0.00060;42.81233
42.9124;42.91235;0.00074;42.91235
43.0124;43.01238;0.00087;43.01238
43.1124;43.11241;0.00111;43.11241
43.2124;43.21244;0.00102;43.21244
43.3125;43.31247;0.00094;43.31247
43.4125;43.41250;0.00095;43.41250
43.5125;43.51253;0.00118;43.51253
43.6126;43.61256;0.00093;43.61256
43.7126;43.71259;0.00122;43.71259
43.8126;43.81261;0.00103;43.81261
43.9126;43.91264;0.00086;43.91264
44.0127;44.01267;0.00102;44.01267
44.1127;44.11270;0.00077;44.11270
44.2127;44.21273;0.00091;44.21273
44.3128;44.31276;0.00068;44.31276
44.4128;44.41279;0.00079;44.41279
44.5128;44.51282;0.00100;44.51282
44.6128;44.61284;0.00086;44.61284
44.7129;44.71287;0.00087;44.71287
44.8129;44.81290;0.00070;44.81290
44.9129;44.91293;0.00085;44.91293
45.0130;45.01296;0.00068;45.01296
45.1130;45.11299;0.00065;45.11299
45.2130;45.21302;0.00120;45.21302
45.3130;45.31305;0.00120;45.31305
45.4131;45.41307;0.00103;45.41307
45.5131;45.51310;0.00088;45.51310
45.6131;45.61313;0.00066;45.61313
45.7132;45.71316;0.00058;45.71316
45.8132;45.81319;0.00113;45.81319
45.9132;45.91322;0.00108;45.91322
46.0132;46.01325;0.00088;46.01325
46.1133;46.11328;0.00092;46.11328
46.2133;46.21331;0.00086;46.21331
46.3133;46.31333;0.00068;46.31333
46.4134;46.41336;0.00080;46.41336
46.5134;46.51339;0.00097;46.51339
46.6134;46.61342;0.00066;46.61342
46.7134;46.71345;0.00082;46.71345
46.8135;46.81348;0.00088;46.81348
46.9135;46.91351;0.00092;46.91351
47.0135;47.01354;0.00082;47.01354
47.1136;47.11356;0.00095;47.11356
47.2136;47.21359;0.00064;47.21359
47.3136;47.31362;0.00119;47.31362
47.4137;47.41365;0.00084;47.41365
47.5137;47.51368;0.00077;47.51368
47.6137;47.61371;0.00102;47.61371
47.7137;47.71374;0.00069;47.71374
47.8138;47.81377;0.00118;47.81377
47.9138;47.91379;0.00059;47.91379
48.0138;48.01382;0.00068;48.01382
48.1139;48.11385;0.00074;48.11385
48.2139;48.21388;0.00058;48.21388
48.3139;48.31391;0.00055;48.31391
48.4139;48.41394;0.00054;48.41394
48.5140;48.51397;0.00054;48.51397
48.6140;48.61400;0.00089;48.61400
48.7140;48.71403;0.00064;48.71403
48.8141;48.81405;0.00024;48.81405
48.9141;48.91408;0.00070;48.91408
49.0141;49.01411;0.00079;49.01411
49.1141;49.11414;0.00064;49.11414
49.2142;49.21417;0.00099;49.21417
49.3142;49.31420;0.00087;49.31420
49.4142;49.41423;0.00061;49.41423
49.5143;49.51426;0.00079;49.51426
49.6143;49.61428;0.00101;49.61428
49.7143;49.71431;0.00083;49.71431
49.8143;49.81434;0.00053;49.81434
49.9144;49.91437;0.00125;49.91437
50.0144;50.01440;0.00122;50.01440
50.1144;50.11443;0.00083;50.11443
50.2145;50.21446;0.00089;50.21446
50.3145;50.31449;0.00091;50.31449
50.4145;50.41451;0.00111;50.41451
50.5145;50.51454;0.00061;50.51454
50.6146;50.61457;0.00063;50.61457
50.7146;50.71460;0.00083;50.71460
50.8146;50.81463;0.00104;50.81463
50.9147;50.91466;0.00092;50.91466
51.0147;51.01469;0.00079;51.01469
51.1147;51.11472;0.00098;51.11472
51.2147;51.21475;0.00090;51.21475
51.3148;51.31477;0.00115;51.31477
51.4148;51.41480;0.00094;51.41480
51.5148;51.51483;0.00099;51.51483
51.6149;51.61486;0.00118;51.61486
51.7149;51.71489;0.00097;51.71489
51.8149;51.81492;0.00066;51.81492
51.9149;51.91495;0.00087;51.91495
52.0150;52.01498;0.00085;52.01498
52.1150;52.11500;0.00086;52.11500
52.2150;52.21503;0.00089;52.21503
52.3151;52.31506;0.00062;52.31506
52.4151;52.41509;0.00104;52.41509
52.5151;52.51512;0.00095;52.51512
52.6151;52.61515;0.00094;52.61515
52.7152;52.71518;0.00098;52.71518
52.8152;52.81521;0.00071;52.81521
52.9152;52.91523;0.00069;52.91523
53.0153;53.01526;0.00079;53.01526
53.1153;53.11529;0.00073;53.11529
53.2153;53.21532;0.00091;53.21532
53.3153;53.31535;0.00029;53.31535
53.4154;53.41538;0.00096;53.41538
53.5154;53.51541;0.00085;53.51541
53.6154;53.61544;0.00102;53.61544
53.7155;53.71547;0.00086;53.71547
53.8155;53.81549;0.00055;53.81549
53.9155;53.91552;0.00106;53.91552
54.0156;54.01555;0.00059;54.01555
54.1156;54.11558;0.00083;54.11558
54.2156;54.21561;0.00055;54.21561
54.3156;54.31564;0.00115;54.31564
54.4157;54.41567;0.00076;54.41567
54.5157;54.51570;0.00095;54.51570
54.6157;54.61572;0.00030;54.61572
54.7158;54.71575;0.00075;54.71575
54.8158;54.81578;0.00020;54.81578
54.9158;54.91581;0.00066;54.91581
55.0158;55.01584;0.00107;55.01584
55.1159;55.11587;0.00071;55.11587
55.2159;55.21590;0.00039;55.21590
55.3159;55.31593;0.00059;55.31593
55.4160;55.41595;0.00045;55.41595
55.5160;55.51598;0.00070;55.51598
55.6160;55.61601;0.00069;55.61601
55.7160;55.71604;0.00048;55.71604
55.8161;55.81607;0.00051;55.81607
55.9161;55.91610;0.00077;55.91610
56.0161;56.01613;0.00047;56.01613
56.1162;56.11616;0.00039;56.11616
56.2162;56.21619;0.00036;56.21619
56.3162;56.31621;0.00078;56.31621
56.4162;56.41624;0.00044;56.41624
56.5163;56.51627;0.00059;56.51627
56.6163;56.61630;0.00044;56.61630
56.7163;56.71633;0.00069;56.71633
56.8164;56.81636;0.00047;56.81636
56.9164;56.91639;0.00032;56.91639
57.0164;57.01642;0.00047;57.01642
57.1164;57.11644;0.00060;57.11644
57.2165;57.21647;0.00068;57.21647
57.3165;57.31650;0.00057;57.31650
57.4165;57.41653;0.00048;57.41653
57.5166;57.51656;0.00071;57.51656
57.6166;57.61659;0.00068;57.61659
57.7166;57.71662;0.00057;57.71662
57.8166;57.81665;0.00007;57.81665
57.9167;57.91667;0.00047;57.91667
58.0167;58.01670;0.00062;58.01670
58.1167;58.11673;0.00040;58.11673
58.2168;58.21676;0.00039;58.21676
58.3168;58.31679;0.00043;58.31679
58.4168;58.41682;0.00062;58.41682
58.5168;58.51685;0.00100;58.51685
58.6169;58.61688;0.00080;58.61688
58.7169;58.71691;0.00079;58.71691
58.8169;58.81693;0.00054;58.81693
58.9170;58.91696;0.00037;58.91696
59.0170;59.01699;0.00022;59.01699
59.1170;59.11702;0.00046;59.11702
59.2170;59.21705;0.00062;59.21705
59.3171;59.31708;0.00048;59.31708
59.4171;59.41711;0.00050;59.41711
59.5171;59.51714;0.00060;59.51714
59.6172;59.61716;0.00040;59.61716
59.7172;59.71719;0.00051;59.71719
59.8172;59.81722;0.00098;59.81722
59.9173;59.91725;0.00059;59.91725
60.0173;60.01728;0.00034;60.01728
60.1173;60.11731;0.00046;60.11731
60.2173;60.21734;0.00060;60.21734
60.3174;60.31737;0.00035;60.31737
60.4174;60.41739;0.00053;60.41739
60.5174;60.51742;0.00078;60.51742
60.6175;60.61745;0.00021;60.61745
60.7175;60.71748;0.00049;60.71748
60.8175;60.81751;0.00069;60.81751
60.9175;60.91754;0.00069;60.91754
61.0176;61.01757;0.00073;61.01757
61.1176;61.11760;0.00072;61.11760
61.2176;61.21763;0.00069;61.21763
61.3177;61.31765;0.00074;61.31765
61.4177;61.41768;0.00042;61.41768
61.5177;61.51771;0.00064;61.51771
61.6177;61.61774;0.00074;61.61774
61.7178;61.71777;0.00060;61.71777
61.8178;61.81780;0.00103;61.81780
61.9178;61.91783;0.00064;61.91783
62.0179;62.01786;0.00076;62.01786
62.1179;62.11788;0.00039;62.11788
62.2179;62.21791;0.00022;62.21791
62.3179;62.31794;0.00035;62.31794
62.4180;62.41797;0.00062;62.41797
62.5180;62.51800;0.00084;62.51800
62.6180;62.61803;0.00092;62.61803
62.7181;62.71806;0.00081;62.71806
62.8181;62.81809;0.00075;62.81809
62.9181;62.91811;0.00050;62.91811
63.0181;63.01814;0.00050;63.01814
63.1182;63.11817;0.00048;63.11817
63.2182;63.21820;0.00093;63.21820
63.3182;63.31823;0.00031;63.31823
63.4183;63.41826;0.00055;63.41826
63.5183;63.51829;0.00045;63.51829
63.6183;63.61832;0.00043;63.61832
63.7183;63.71835;0.00045;63.71835
63.8184;63.81837;0.00049;63.81837
63.9184;63.91840;0.00003;63.91840
64.0184;64.01843;0.00029;64.01843
64.1185;64.11846;0.00022;64.11846
64.2185;64.21849;0.00065;64.21849
64.3185;64.31852;0.00066;64.31852
64.4185;64.41855;0.00036;64.41855
64.5186;64.51858;0.00061;64.51858
64.6186;64.61860;0.00054;64.61860
64.7186;64.71863;0.00041;64.71863
64.8187;64.81866;0.00023;64.81866
64.9187;64.91869;0.00042;64.91869
65.0187;65.01872;0.00028;65.01872
65.1187;65.11875;0.00065;65.11875
65.2188;65.21878;0.00045;65.21878
65.3188;65.31881;0.00040;65.31881
65.4188;65.41883;0.00031;65.41883
65.5189;65.51886;0.00058;65.51886
65.6189;65.61889;0.00026;65.61889
65.7189;65.71892;0.00053;65.71892
65.8189;65.81895;0.00066;65.81895
65.9190;65.91898;0.00081;65.91898
66.0190;66.01901;0.00086;66.01901
66.1190;66.11904;0.00090;66.11904
66.2191;66.21906;0.00062;66.21906
66.3191;66.31909;0.00090;66.31909
66.4191;66.41912;0.00043;66.41912
66.5192;66.51915;0.00040;66.51915
66.6192;66.61918;0.00068;66.61918
66.7192;66.71921;0.00035;66.71921
66.8192;66.81924;0.00071;66.81924
66.9193;66.91927;0.00050;66.91927
67.0193;67.01930;0.00073;67.01930
67.1193;67.11932;0.00092;67.11932
67.2194;67.21935;0.00062;67.21935
67.3194;67.31938;0.00089;67.31938
67.4194;67.41941;0.00061;67.41941
67.5194;67.51944;0.00046;67.51944
67.6195;67.61947;0.00054;67.61947
67.7195;67.71950;0.00049;67.71950
67.8195;67.81953;0.00069;67.81953
67.9196;67.91955;0.00067;67.91955
68.0196;68.01958;0.00061;68.01958
68.1196;68.11961;0.00034;68.11961
68.2196;68.21964;0.00073;68.21964
68.3197;68.31967;0.00091;68.31967
68.4197;68.41970;0.00052;68.41970
68.5197;68.51973;0.00054;68.51973
68.6198;68.61976;0.00045;68.61976
68.7198;68.71978;0.00038;68.71978
68.8198;68.81981;0.00019;68.81981
68.9198;68.91984;0.00064;68.91984
69.0199;69.01987;0.00059;69.01987
69.1199;69.11990;0.00033;69.11990
69.2199;69.21993;0.00064;69.21993
69.3200;69.31996;0.00013;69.31996
69.4200;69.41999;0.00053;69.41999
69.5200;69.52002;0.00074;69.52002
69.6200;69.62004;0.00067;69.62004
69.7201;69.72007;0.00033;69.72007
69.8201;69.82010;0.00078;69.82010
69.9201;69.92013;0.00045;69.92013
70.0202;70.02016;0.00065;70.02016
70.1202;70.12019;0.00017;70.12019
70.2202;70.22022;0.00017;70.22022
70.3202;70.32025;0.00061;70.32025
70.4203;70.42027;0.00052;70.42027
70.5203;70.52030;0.00059;70.52030
70.6203;70.62033;0.00049;70.62033
70.7204;70.72036;0.00053;70.72036
70.8204;70.82039;0.00030;70.82039
70.9204;70.92042;0.00033;70.92042
71.0204;71.02045;0.00059;71.02045
71.1205;71.12048;0.00051;71.12048
71.2205;71.22050;0.00028;71.22050
71.3205;71.32053;0.00073;71.32053
71.4206;71.42056;0.00086;71.42056
71.5206;71.52059;0.00077;71.52059
71.6206;71.62062;0.00057;71.62062
71.7206;71.72065;0.00023;71.72065
71.8207;71.82068;0.00045;71.82068
71.9207;71.92071;0.00057;71.92071
72.0207;72.02074;0.00052;72.02074
72.1208;72.12076;0.00043;72.12076
72.2208;72.22079;0.00050;72.22079
72.3208;72.32082;0.00075;72.32082
72.4209;72.42085;0.00018;72.42085
72.5209;72.52088;0.00077;72.52088
72.6209;72.62091;0.00046;72.62091
72.7209;72.72094;0.00050;72.72094
72.8210;72.82097;0.00049;72.82097
72.9210;72.92099;0.00076;72.92099
73.0210;73.02102;0.00027;73.02102
73.1211;73.12105;0.00052;73.12105
73.2211;73.22108;0.00048;73.22108
73.3211;73.32111;0.00060;73.32111
73.4211;73.42114;0.00074;73.42114
73.5212;73.52117;0.00076;73.52117
73.6212;73.62120;0.00098;73.62120
73.7212;73.72122;0.00077;73.72122
73.8213;73.82125;0.00094;73.82125
73.9213;73.92128;0.00093;73.92128
74.0213;74.02131;0.00065;74.02131
74.1213;74.12134;0.00109;74.12134
74.2214;74.22137;0.00089;74.22137
74.3214;74.32140;0.00101;74.32140
74.4214;74.42143;0.00075;74.42143
74.5215;74.52146;0.00099;74.52146
74.6215;74.62148;0.00091;74.62148
74.7215;74.72151;0.00055;74.72151
74.8215;74.82154;0.00133;74.82154
74.9216;74.92157;0.00114;74.92157
75.0216;75.02160;0.00108;75.02160
75.1216;75.12163;0.00130;75.12163
75.2217;75.22166;0.00034;75.22166
75.3217;75.32169;0.00067;75.32169
75.4217;75.42171;0.00054;75.42171
75.5217;75.52174;0.00080;75.52174
75.6218;75.62177;0.00118;75.62177
75.7218;75.72180;0.00118;75.72180
75.8218;75.82183;0.00088;75.82183
75.9219;75.92186;0.00107;75.92186
76.0219;76.02189;0.00078;76.02189
76.1219;76.12192;0.00092;76.12192
76.2219;76.22194;0.00100;76.22194
76.3220;76.32197;0.00085;76.32197
76.4220;76.42200;0.00089;76.42200
76.5220;76.52203;0.00094;76.52203
76.6221;76.62206;0.00077;76.62206
76.7221;76.72209;0.00080;76.72209
76.8221;76.82212;0.00076;76.82212
76.9221;76.92215;0.00084;76.92215
77.0222;77.02218;0.00092;77.02218
77.1222;77.12220;0.00066;77.12220
77.2222;77.22223;0.00108;77.22223
77.3223;77.32226;0.00092;77.32226
77.4223;77.42229;0.00092;77.42229
77.5223;77.52232;0.00092;77.52232
77.6223;77.62235;0.00099;77.62235
77.7224;77.72238;0.00096;77.72238
77.8224;77.82241;0.00115;77.82241
77.9224;77.92243;0.00126;77.92243
78.0225;78.02246;0.00095;78.02246
78.1225;78.12249;0.00079;78.12249
78.2225;78.22252;0.00087;78.22252
78.3225;78.32255;0.00131;78.32255
78.4226;78.42258;0.00105;78.42258
78.5226;78.52261;0.00129;78.52261
78.6226;78.62264;0.00122;78.62264
78.7227;78.72266;0.00087;78.72266
78.8227;78.82269;0.00110;78.82269
78.9227;78.92272;0.00098;78.92272
79.0228;79.02275;0.00103;79.02275
79.1228;79.12278;0.00108;79.12278
79.2228;79.22281;0.00124;79.22281
79.3228;79.32284;0.00145;79.32284
79.4229;79.42287;0.00132;79.42287
79.5229;79.52290;0.00099;79.52290
79.6229;79.62292;0.00145;79.62292
79.7230;79.72295;0.00122;79.72295
79.8230;79.82298;0.00102;79.82298
79.9230;79.92301;0.00072;79.92301
80.0230;80.02304;0.00141;80.02304
80.1231;80.12307;0.00122;80.12307
80.2231;80.22310;0.00119;80.22310
80.3231;80.32313;0.00123;80.32313
80.4232;80.42315;0.00108;80.42315
80.5232;80.52318;0.00108;80.52318
80.6232;80.62321;0.00124;80.62321
80.7232;80.72324;0.00124;80.72324
80.8233;80.82327;0.00115;80.82327
80.9233;80.92330;0.00147;80.92330
81.0233;81.02333;0.00131;81.02333
81.1234;81.12336;0.00160;81.12336
81.2234;81.22338;0.00102;81.22338
81.3234;81.32341;0.00134;81.32341
81.4234;81.42344;0.00113;81.42344
81.5235;81.52347;0.00114;81.52347
81.6235;81.62350;0.00126;81.62350
81.7235;81.72353;0.00084;81.72353
81.8236;81.82356;0.00099;81.82356
81.9236;81.92359;0.00137;81.92359
82.0236;82.02362;0.00126;82.02362
82.1236;82.12364;0.00150;82.12364
82.2237;82.22367;0.00116;82.22367
82.3237;82.32370;0.00140;82.32370
82.4237;82.42373;0.00140;82.42373
82.5238;82.52376;0.00111;82.52376
82.6238;82.62379;0.00122;82.62379
82.7238;82.72382;0.00151;82.72382
82.8238;82.82385;0.00144;82.82385
82.9239;82.92387;0.00130;82.92387
83.0239;83.02390;0.00140;83.02390
83.1239;83.12393;0.00171;83.12393
83.2240;83.22396;0.00143;83.22396
83.3240;83.32399;0.00123;83.32399
83.4240;83.42402;0.00135;83.42402
83.5240;83.52405;0.00138;83.52405
83.6241;83.62408;0.00151;83.62408
83.7241;83.72410;0.00162;83.72410
83.8241;83.82413;0.00142;83.82413
83.9242;83.92416;0.00154;83.92416
84.0242;84.02419;0.00138;84.02419
84.1242;84.12422;0.00164;84.12422
84.2242;84.22425;0.00156;84.22425
84.3243;84.32428;0.00160;84.32428
84.4243;84.42431;0.00131;84.42431
84.5243;84.52434;0.00142;84.52434
84.6244;84.62436;0.00147;84.62436
84.7244;84.72439;0.00119;84.72439
84.8244;84.82442;0.00158;84.82442
84.9245;84.92445;0.00132;84.92445
85.0245;85.02448;0.00167;85.02448
85.1245;85.12451;0.00106;85.12451
85.2245;85.22454;0.00129;85.22454
85.3246;85.32457;0.00158;85.32457
85.4246;85.42459;0.00180;85.42459
85.5246;85.52462;0.00158;85.52462
85.6247;85.62465;0.00143;85.62465
85.7247;85.72468;0.00166;85.72468
85.8247;85.82471;0.00145;85.82471
85.9247;85.92474;0.00148;85.92474
86.0248;86.02477;0.00144;86.02477
86.1248;86.12480;0.00165;86.12480
86.2248;86.22482;0.00172;86.22482
86.3249;86.32485;0.00183;86.32485
86.4249;86.42488;0.00167;86.42488
86.5249;86.52491;0.00164;86.52491
86.6249;86.62494;0.00185;86.62494
86.7250;86.72497;0.00203;86.72497
86.8250;86.82500;0.00177;86.82500
86.9250;86.92503;0.00173;86.92503
87.0251;87.02506;0.00183;87.02506
87.1251;87.12508;0.00180;87.12508
87.2251;87.22511;0.00150;87.22511
87.3251;87.32514;0.00158;87.32514
87.4252;87.42517;0.00232;87.42517
87.5252;87.52520;0.00205;87.52520
87.6252;87.62523;0.00184;87.62523
87.7253;87.72526;0.00188;87.72526
87.8253;87.82529;0.00211;87.82529
87.9253;87.92531;0.00192;87.92531
88.0253;88.02534;0.00172;88.02534
88.1254;88.12537;0.00192;88.12537
88.2254;88.22540;0.00189;88.22540
88.3254;88.32543;0.00210;88.32543
88.4255;88.42546;0.00176;88.42546
88.5255;88.52549;0.00164;88.52549
88.6255;88.62552;0.00174;88.62552
88.7255;88.72554;0.00172;88.72554
88.8256;88.82557;0.00211;88.82557
88.9256;88.92560;0.00188;88.92560
89.0256;89.02563;0.00218;89.02563
89.1257;89.12566;0.00191;89.12566
89.2257;89.22569;0.00225;89.22569
89.3257;89.32572;0.00228;89.32572
89.4257;89.42575;0.00170;89.42575
89.5258;89.52578;0.00225;89.52578
89.6258;89.62580;0.00203;89.62580
89.7258;89.72583;0.00208;89.72583
89.8259;89.82586;0.00200;89.82586
89.9259;89.92589;0.00239;89.92589
90.0259;90.02592;0.00219;90.02592
90.1259;90.12595;0.00173;90.12595
90.2260;90.22598;0.00175;90.22598
90.3260;90.32601;0.00200;90.32601
90.4260;90.42603;0.00220;90.42603
90.5261;90.52606;0.00202;90.52606
90.6261;90.62609;0.00181;90.62609
90.7261;90.72612;0.00216;90.72612
90.8261;90.82615;0.00190;90.82615
90.9262;90.92618;0.00194;90.92618
91.0262;91.02621;0.00215;91.02621
91.1262;91.12624;0.00225;91.12624
91.2263;91.22626;0.00192;91.22626
91.3263;91.32629;0.00228;91.32629
91.4263;91.42632;0.00234;91.42632
91.5264;91.52635;0.00242;91.52635
91.6264;91.62638;0.00248;91.62638
91.7264;91.72641;0.00245;91.72641
91.8264;91.82644;0.00245;91.82644
91.9265;91.92647;0.00256;91.92647
92.0265;92.02650;0.00213;92.02650
92.1265;92.12652;0.00237;92.12652
92.2266;92.22655;0.00280;92.22655
92.3266;92.32658;0.00214;92.32658
92.4266;92.42661;0.00245;92.42661
92.5266;92.52664;0.00224;92.52664
92.6267;92.62667;0.00258;92.62667
92.7267;92.72670;0.00241;92.72670
92.8267;92.82673;0.00271;92.82673
92.9268;92.92675;0.00208;92.92675
93.0268;93.02678;0.00196;93.02678
93.1268;93.12681;0.00274;93.12681
93.2268;93.22684;0.00255;93.22684
93.3269;93.32687;0.00272;93.32687
93.4269;93.42690;0.00267;93.42690
93.5269;93.52693;0.00230;93.52693
93.6270;93.62696;0.00257;93.62696
93.7270;93.72698;0.00276;93.72698
93.8270;93.82701;0.00243;93.82701
93.9270;93.92704;0.00259;93.92704
94.0271;94.02707;0.00281;94.02707
94.1271;94.12710;0.00250;94.12710
94.2271;94.22713;0.00249;94.22713
94.3272;94.32716;0.00246;94.32716
94.4272;94.42719;0.00273;94.42719
94.5272;94.52722;0.00232;94.52722
94.6272;94.62724;0.00268;94.62724
94.7273;94.72727;0.00257;94.72727
94.8273;94.82730;0.00235;94.82730
94.9273;94.92733;0.00250;94.92733
95.0274;95.02736;0.00263;95.02736
95.1274;95.12739;0.00270;95.12739
95.2274;95.22742;0.00245;95.22742
95.3274;95.32745;0.00252;95.32745
95.4275;95.42747;0.00245;95.42747
95.5275;95.52750;0.00266;95.52750
95.6275;95.62753;0.00266;95.62753
95.7276;95.72756;0.00303;95.72756
95.8276;95.82759;0.00259;95.82759
95.9276;95.92762;0.00230;95.92762
96.0276;96.02765;0.00272;96.02765
96.1277;96.12768;0.00275;96.12768
96.2277;96.22770;0.00242;96.22770
96.3277;96.32773;0.00247;96.32773
96.4278;96.42776;0.00289;96.42776
96.5278;96.52779;0.00269;96.52779
96.6278;96.62782;0.00241;96.62782
96.7278;96.72785;0.00289;96.72785
96.8279;96.82788;0.00287;96.82788
96.9279;96.92791;0.00301;96.92791
97.0279;97.02794;0.00271;97.02794
97.1280;97.12796;0.00265;97.12796
97.2280;97.22799;0.00264;97.22799
97.3280;97.32802;0.00309;97.32802
97.4281;97.42805;0.00318;97.42805
97.5281;97.52808;0.00297;97.52808
97.6281;97.62811;0.00254;97.62811
97.7281;97.72814;0.00284;97.72814
97.8282;97.82817;0.00284;97.82817
97.9282;97.92819;0.00301;97.92819
98.0282;98.02822;0.00330;98.02822
98.1283;98.12825;0.00350;98.12825
98.2283;98.22828;0.00273;98.22828
98.3283;98.32831;0.00364;98.32831
98.4283;98.42834;0.00310;98.42834
98.5284;98.52837;0.00296;98.52837
98.6284;98.62840;0.00326;98.62840
98.7284;98.72842;0.00316;98.72842
98.8285;98.82845;0.00313;98.82845
98.9285;98.92848;0.00322;98.92848
99.0285;99.02851;0.00354;99.02851
99.1285;99.12854;0.00297;99.12854
99.2286;99.22857;0.00306;99.22857
99.3286;99.32860;0.00311;99.32860
99.4286;99.42863;0.00316;99.42863
99.5287;99.52866;0.00298;99.52866
99.6287;99.62868;0.00304;99.62868
99.7287;99.72871;0.00343;99.72871
99.8287;99.82874;0.00299;99.82874
99.9288;99.92877;0.00327;99.92877
100.0288;100.02880;0.00335;100.02880
100.1288;100.12883;0.00343;100.12883
100.2289;100.22886;0.00292;100.22886
100.3289;100.32889;0.00351;100.32889
100.4289;100.42891;0.00323;100.42891
100.5289;100.52894;0.00349;100.52894
100.6290;100.62897;0.00353;100.62897
100.7290;100.72900;0.00336;100.72900
100.8290;100.82903;0.00320;100.82903
100.9291;100.92906;0.00329;100.92906
101.0291;101.02909;0.00322;101.02909
101.1291;101.12912;0.00340;101.12912
101.2291;101.22914;0.00306;101.22914
101.3292;101.32917;0.00373;101.32917
101.4292;101.42920;0.00332;101.42920
101.5292;101.52923;0.00322;101.52923
101.6293;101.62926;0.00346;101.62926
101.7293;101.72929;0.00335;101.72929
101.8293;101.82932;0.00334;101.82932
101.9293;101.92935;0.00360;101.92935
102.0294;102.02938;0.00357;102.02938
102.1294;102.12940;0.00354;102.12940
102.2294;102.22943;0.00399;102.22943
102.3295;102.32946;0.00370;102.32946
102.4295;102.42949;0.00353;102.42949
102.5295;102.52952;0.00347;102.52952
102.6295;102.62955;0.00346;102.62955
102.7296;102.72958;0.00376;102.72958
102.8296;102.82961;0.00323;102.82961
102.9296;102.92963;0.00354;102.92963
103.0297;103.02966;0.00395;103.02966
103.1297;103.12969;0.00374;103.12969
103.2297;103.22972;0.00344;103.22972
103.3297;103.32975;0.00377;103.32975
103.4298;103.42978;0.00378;103.42978
103.5298;103.52981;0.00400;103.52981
103.6298;103.62984;0.00402;103.62984
103.7299;103.72986;0.00366;103.72986
103.8299;103.82989;0.00366;103.82989
103.9299;103.92992;0.00362;103.92992
104.0300;104.02995;0.00395;104.02995
104.1300;104.12998;0.00386;104.12998
104.2300;104.23001;0.00409;104.23001
104.3300;104.33004;0.00418;104.33004
104.4301;104.43007;0.00396;104.43007
104.5301;104.53010;0.00390;104.53010
104.6301;104.63012;0.00425;104.63012
104.7302;104.73015;0.00402;104.73015
104.8302;104.83018;0.00411;104.83018
104.9302;104.93021;0.00390;104.93021
105.0302;105.03024;0.00406;105.03024
105.1303;105.13027;0.00371;105.13027
105.2303;105.23030;0.00411;105.23030
105.3303;105.33033;0.00372;105.33033
105.4304;105.43035;0.00414;105.43035
105.5304;105.53038;0.00431;105.53038
105.6304;105.63041;0.00407;105.63041
105.7304;105.73044;0.00392;105.73044
105.8305;105.83047;0.00411;105.83047
105.9305;105.93050;0.00370;105.93050
106.0305;106.03053;0.00381;106.03053
106.1306;106.13056;0.00425;106.13056
106.2306;106.23058;0.00380;106.23058
106.3306;106.33061;0.00419;106.33061
106.4306;106.43064;0.00399;106.43064
106.5307;106.53067;0.00436;106.53067
106.6307;106.63070;0.00404;106.63070
106.7307;106.73073;0.00390;106.73073
106.8308;106.83076;0.00423;106.83076
106.9308;106.93079;0.00416;106.93079
107.0308;107.03082;0.00414;107.03082
107.1308;107.13084;0.00409;107.13084
107.2309;107.23087;0.00415;107.23087
107.3309;107.33090;0.00397;107.33090
107.4309;107.43093;0.00401;107.43093
107.5310;107.53096;0.00412;107.53096
107.6310;107.63099;0.00434;107.63099
107.7310;107.73102;0.00422;107.73102
107.8310;107.83105;0.00434;107.83105
107.9311;107.93107;0.00428;107.93107
108.0311;108.03110;0.00446;108.03110
108.1311;108.13113;0.00421;108.13113
108.2312;108.23116;0.00453;108.23116
108.3312;108.33119;0.00457;108.33119
108.4312;108.43122;0.00451;108.43122
108.5312;108.53125;0.00442;108.53125
108.6313;108.63128;0.00431;108.63128
108.7313;108.73130;0.00447;108.73130
108.8313;108.83133;0.00425;108.83133
108.9314;108.93136;0.00443;108.93136
109.0314;109.03139;0.00475;109.03139
109.1314;109.13142;0.00454;109.13142
109.2314;109.23145;0.00438;109.23145
109.3315;109.33148;0.00474;109.33148
109.4315;109.43151;0.00431;109.43151
109.5315;109.53153;0.00471;109.53153
109.6316;109.63156;0.00483;109.63156
109.7316;109.73159;0.00474;109.73159
109.8316;109.83162;0.00453;109.83162
109.9317;109.93165;0.00477;109.93165
110.0317;110.03168;0.00432;110.03168
110.1317;110.13171;0.00450;110.13171
110.2317;110.23174;0.00443;110.23174
110.3318;110.33177;0.00468;110.33177
110.4318;110.43179;0.00460;110.43179
110.5318;110.53182;0.00474;110.53182
110.6319;110.63185;0.00453;110.63185
110.7319;110.73188;0.00503;110.73188
110.8319;110.83191;0.00497;110.83191
110.9319;110.93194;0.00484;110.93194
111.0320;111.03197;0.00526;111.03197
111.1320;111.13200;0.00505;111.13200
111.2320;111.23202;0.00510;111.23202
111.3321;111.33205;0.00498;111.33205
111.4321;111.43208;0.00514;111.43208
111.5321;111.53211;0.00493;111.53211
111.6321;111.63214;0.00507;111.63214
111.7322;111.73217;0.00491;111.73217
111.8322;111.83220;0.00483;111.83220
111.9322;111.93223;0.00513;111.93223
112.0323;112.03225;0.00507;112.03225
112.1323;112.13228;0.00504;112.13228
112.2323;112.23231;0.00506;112.23231
112.3323;112.33234;0.00551;112.33234
112.4324;112.43237;0.00534;112.43237
112.5324;112.53240;0.00563;112.53240
112.6324;112.63243;0.00549;112.63243
112.7325;112.73246;0.00525;112.73246
112.8325;112.83249;0.00551;112.83249
112.9325;112.93251;0.00516;112.93251
113.0325;113.03254;0.00531;113.03254
113.1326;113.13257;0.00507;113.13257
113.2326;113.23260;0.00524;113.23260
113.3326;113.33263;0.00532;113.33263
113.4327;113.43266;0.00536;113.43266
113.5327;113.53269;0.00546;113.53269
113.6327;113.63272;0.00548;113.63272
113.7327;113.73274;0.00538;113.73274
113.8328;113.83277;0.00521;113.83277
113.9328;113.93280;0.00547;113.93280
114.0328;114.03283;0.00584;114.03283
114.1329;114.13286;0.00547;114.13286
114.2329;114.23289;0.00546;114.23289
114.3329;114.33292;0.00529;114.33292
114.4329;114.43295;0.00576;114.43295
114.5330;114.53297;0.00561;114.53297
114.6330;114.63300;0.00590;114.63300
114.7330;114.73303;0.00574;114.73303
114.8331;114.83306;0.00573;114.83306
114.9331;114.93309;0.00568;114.93309
115.0331;115.03312;0.00566;115.03312
115.1331;115.13315;0.00560;115.13315
115.2332;115.23318;0.00553;115.23318
115.3332;115.33321;0.00585;115.33321
115.4332;115.43323;0.00575;115.43323
115.5333;115.53326;0.00562;115.53326
115.6333;115.63329;0.00584;115.63329
115.7333;115.73332;0.00568;115.73332
115.8333;115.83335;0.00582;115.83335
115.9334;115.93338;0.00642;115.93338
116.0334;116.03341;0.00568;116.03341
116.1334;116.13344;0.00553;116.13344
116.2335;116.23346;0.00556;116.23346
116.3335;116.33349;0.00618;116.33349
116.4335;116.43352;0.00576;116.43352
116.5336;116.53355;0.00582;116.53355
116.6336;116.63358;0.00580;116.63358
116.7336;116.73361;0.00591;116.73361
116.8336;116.83364;0.00566;116.83364
116.9337;116.93367;0.00593;116.93367
117.0337;117.03369;0.00582;117.03369
117.1337;117.13372;0.00604;117.13372
117.2338;117.23375;0.00581;117.23375
117.3338;117.33378;0.00591;117.33378
117.4338;117.43381;0.00601;117.43381
117.5338;117.53384;0.00617;117.53384
117.6339;117.63387;0.00610;117.63387
117.7339;117.73390;0.00634;117.73390
117.8339;117.83393;0.00613;117.83393
117.9340;117.93395;0.00607;117.93395
118.0340;118.03398;0.00605;118.03398
118.1340;118.13401;0.00627;118.13401
118.2340;118.23404;0.00616;118.23404
118.3341;118.33407;0.00636;118.33407
118.4341;118.43410;0.00607;118.43410
118.5341;118.53413;0.00630;118.53413
118.6342;118.63416;0.00622;118.63416
118.7342;118.73418;0.00595;118.73418
118.8342;118.83421;0.00641;118.83421
118.9342;118.93424;0.00673;118.93424
119.0343;119.03427;0.00647;119.03427
119.1343;119.13430;0.00642;119.13430
119.2343;119.23433;0.00666;119.23433
119.3344;119.33436;0.00668;119.33436
119.4344;119.43439;0.00667;119.43439
119.5344;119.53441;0.00671;119.53441
119.6344;119.63444;0.00654;119.63444
119.7345;119.73447;0.00679;119.73447
119.8345;119.83450;0.00667;119.83450
119.9345;119.93453;0.00646;119.93453
120.0346;120.03456;0.00666;120.03456
120.1346;120.13459;0.00662;120.13459
120.2346;120.23462;0.00661;120.23462
120.3346;120.33465;0.00682;120.33465
120.4347;120.43467;0.00673;120.43467
120.5347;120.53470;0.00693;120.53470
120.6347;120.63473;0.00696;120.63473
120.7348;120.73476;0.00719;120.73476
120.8348;120.83479;0.00699;120.83479
120.9348;120.93482;0.00679;120.93482
121.0348;121.03485;0.00688;121.03485
121.1349;121.13488;0.00693;121.13488
121.2349;121.23490;0.00662;121.23490
121.3349;121.33493;0.00664;121.33493
121.4350;121.43496;0.00682;121.43496
121.5350;121.53499;0.00700;121.53499
121.6350;121.63502;0.00700;121.63502
121.7350;121.73505;0.00725;121.73505
121.8351;121.83508;0.00723;121.83508
121.9351;121.93511;0.00706;121.93511
122.0351;122.03513;0.00739;122.03513
122.1352;122.13516;0.00719;122.13516
122.2352;122.23519;0.00732;122.23519
122.3352;122.33522;0.00704;122.33522
122.4353;122.43525;0.00734;122.43525
122.5353;122.53528;0.00702;122.53528
122.6353;122.63531;0.00700;122.63531
122.7353;122.73534;0.00730;122.73534
122.8354;122.83537;0.00735;122.83537
122.9354;122.93539;0.00721;122.93539
123.0354;123.03542;0.00733;123.03542
123.1355;123.13545;0.00727;123.13545
123.2355;123.23548;0.00729;123.23548
123.3355;123.33551;0.00742;123.33551
123.4355;123.43554;0.00738;123.43554
123.5356;123.53557;0.00784;123.53557
123.6356;123.63560;0.00742;123.63560
123.7356;123.73562;0.00768;123.73562
123.8357;123.83565;0.00779;123.83565
123.9357;123.93568;0.00784;123.93568
124.0357;124.03571;0.00749;124.03571
124.1357;124.13574;0.00772;124.13574
124.2358;124.23577;0.00777;124.23577
124.3358;124.33580;0.00767;124.33580
124.4358;124.43583;0.00783;124.43583
124.5359;124.53585;0.00791;124.53585
124.6359;124.63588;0.00785;124.63588
124.7359;124.73591;0.00787;124.73591
124.8359;124.83594;0.00755;124.83594
124.9360;124.93597;0.00789;124.93597
125.0360;125.03600;0.00776;125.03600
125.1360;125.13603;0.00817;125.13603
125.2361;125.23606;0.00818;125.23606
125.3361;125.33609;0.00823;125.33609
125.4361;125.43611;0.00833;125.43611
125.5361;125.53614;0.00819;125.53614
125.6362;125.63617;0.00818;125.63617
125.7362;125.73620;0.00826;125.73620
125.8362;125.83623;0.00793;125.83623
125.9363;125.93626;0.00808;125.93626
126.0363;126.03629;0.00803;126.03629
126.1363;126.13632;0.00830;126.13632
126.2363;126.23634;0.00827;126.23634
126.3364;126.33637;0.00844;126.33637
126.4364;126.43640;0.00886;126.43640
126.5364;126.53643;0.00877;126.53643
126.6365;126.63646;0.00825;126.63646
126.7365;126.73649;0.00834;126.73649
126.8365;126.83652;0.00872;126.83652
126.9365;126.93655;0.00840;126.93655
127.0366;127.03657;0.00827;127.03657
127.1366;127.13660;0.00854;127.13660
127.2366;127.23663;0.00844;127.23663
127.3367;127.33666;0.00878;127.33666
127.4367;127.43669;0.00885;127.43669
127.5367;127.53672;0.00861;127.53672
127.6367;127.63675;0.00861;127.63675
127.7368;127.73678;0.00886;127.73678
127.8368;127.83681;0.00873;127.83681
127.9368;127.93683;0.00858;127.93683
128.0369;128.03686;0.00868;128.03686
128.1369;128.13689;0.00852;128.13689
128.2369;128.23692;0.00916;128.23692
128.3369;128.33695;0.00898;128.33695
128.4370;128.43698;0.00910;128.43698
128.5370;128.53701;0.00891;128.53701
128.6370;128.63704;0.00908;128.63704
128.7371;128.73706;0.00872;128.73706
128.8371;128.83709;0.00888;128.83709
128.9371;128.93712;0.00889;128.93712
129.0372;129.03715;0.00894;129.03715
129.1372;129.13718;0.00952;129.13718
129.2372;129.23721;0.00949;129.23721
129.3372;129.33724;0.00922;129.33724
129.4373;129.43727;0.00941;129.43727
129.5373;129.53729;0.00934;129.53729
129.6373;129.63732;0.00910;129.63732
129.7374;129.73735;0.00973;129.73735
129.8374;129.83738;0.00966;129.83738
129.9374;129.93741;0.00919;129.93741
130.0374;130.03744;0.00949;130.03744
130.1375;130.13747;0.00982;130.13747
130.2375;130.23750;0.00993;130.23750
130.3375;130.33753;0.00981;130.33753
130.4376;130.43755;0.01003;130.43755
130.5376;130.53758;0.01008;130.53758
130.6376;130.63761;0.00964;130.63761
130.7376;130.73764;0.01000;130.73764
130.8377;130.83767;0.00995;130.83767
130.9377;130.93770;0.00993;130.93770
131.0377;131.03773;0.01001;131.03773
131.1378;131.13776;0.01024;131.13776
131.2378;131.23778;0.01009;131.23778
131.3378;131.33781;0.01023;131.33781
131.4378;131.43784;0.01018;131.43784
131.5379;131.53787;0.01015;131.53787
131.6379;131.63790;0.01078;131.63790
131.7379;131.73793;0.01053;131.73793
131.8380;131.83796;0.01082;131.83796
131.9380;131.93799;0.01049;131.93799
132.0380;132.03801;0.01077;132.03801
132.1380;132.13804;0.01017;132.13804
132.2381;132.23807;0.01057;132.23807
132.3381;132.33810;0.01049;132.33810
132.4381;132.43813;0.01079;132.43813
132.5382;132.53816;0.01058;132.53816
132.6382;132.63819;0.01109;132.63819
132.7382;132.73822;0.01082;132.73822
132.8382;132.83825;0.01069;132.83825
132.9383;132.93827;0.01090;132.93827
133.0383;133.03830;0.01074;133.03830
133.1383;133.13833;0.01079;133.13833
133.2384;133.23836;0.01079;133.23836
133.3384;133.33839;0.01085;133.33839
133.4384;133.43842;0.01117;133.43842
133.5384;133.53845;0.01125;133.53845
133.6385;133.63848;0.01158;133.63848
133.7385;133.73850;0.01119;133.73850
133.8385;133.83853;0.01110;133.83853
133.9386;133.93856;0.01152;133.93856
134.0386;134.03859;0.01192;134.03859
134.1386;134.13862;0.01168;134.13862
134.2386;134.23865;0.01172;134.23865
134.3387;134.33868;0.01178;134.33868
134.4387;134.43871;0.01142;134.43871
134.5387;134.53873;0.01126;134.53873
134.6388;134.63876;0.01202;134.63876
134.7388;134.73879;0.01188;134.73879
134.8388;134.83882;0.01233;134.83882
134.9388;134.93885;0.01174;134.93885
135.0389;135.03888;0.01211;135.03888
135.1389;135.13891;0.01193;135.13891
135.2389;135.23894;0.01195;135.23894
135.3390;135.33897;0.01187;135.33897
135.4390;135.43899;0.01220;135.43899
135.5390;135.53902;0.01268;135.53902
135.6391;135.63905;0.01237;135.63905
135.7391;135.73908;0.01249;135.73908
135.8391;135.83911;0.01208;135.83911
135.9391;135.93914;0.01243;135.93914
136.0392;136.03917;0.01234;136.03917
136.1392;136.13920;0.01280;136.13920
136.2392;136.23922;0.01288;136.23922
136.3393;136.33925;0.01259;136.33925
136.4393;136.43928;0.01293;136.43928
136.5393;136.53931;0.01286;136.53931
136.6393;136.63934;0.01305;136.63934
136.7394;136.73937;0.01295;136.73937
136.8394;136.83940;0.01295;136.83940
136.9394;136.93943;0.01300;136.93943
137.0395;137.03945;0.01283;137.03945
137.1395;137.13948;0.01341;137.13948
137.2395;137.23951;0.01334;137.23951
137.3395;137.33954;0.01338;137.33954
137.4396;137.43957;0.01385;137.43957
137.5396;137.53960;0.01371;137.53960
137.6396;137.63963;0.01327;137.63963
137.7397;137.73966;0.01361;137.73966
137.8397;137.83969;0.01366;137.83969
137.9397;137.93971;0.01369;137.93971
138.0397;138.03974;0.01396;138.03974
138.1398;138.13977;0.01383;138.13977
138.2398;138.23980;0.01397;138.23980
138.3398;138.33983;0.01363;138.33983
138.4399;138.43986;0.01396;138.43986
138.5399;138.53989;0.01427;138.53989
138.6399;138.63992;0.01397;138.63992
138.7399;138.73994;0.01376;138.73994
138.8400;138.83997;0.01424;138.83997
138.9400;138.94000;0.01460;138.94000
139.0400;139.04003;0.01447;139.04003
139.1401;139.14006;0.01437;139.14006
139.2401;139.24009;0.01482;139.24009
139.3401;139.34012;0.01463;139.34012
139.4401;139.44015;0.01464;139.44015
139.5402;139.54017;0.01443;139.54017
139.6402;139.64020;0.01502;139.64020
139.7402;139.74023;0.01492;139.74023
139.8403;139.84026;0.01453;139.84026
139.9403;139.94029;0.01493;139.94029
140.0403;140.04032;0.01517;140.04032
140.1403;140.14035;0.01489;140.14035
140.2404;140.24038;0.01531;140.24038
140.3404;140.34041;0.01550;140.34041
140.4404;140.44043;0.01571;140.44043
140.5405;140.54046;0.01570;140.54046
140.6405;140.64049;0.01552;140.64049
140.7405;140.74052;0.01552;140.74052
140.8405;140.84055;0.01577;140.84055
140.9406;140.94058;0.01620;140.94058
141.0406;141.04061;0.01595;141.04061
141.1406;141.14064;0.01582;141.14064
141.2407;141.24066;0.01580;141.24066
141.3407;141.34069;0.01583;141.34069
141.4407;141.44072;0.01615;141.44072
141.5408;141.54075;0.01603;141.54075
141.6408;141.64078;0.01653;141.64078
141.7408;141.74081;0.01636;141.74081
141.8408;141.84084;0.01663;141.84084
141.9409;141.94087;0.01670;141.94087
142.0409;142.04089;0.01665;142.04089
142.1409;142.14092;0.01668;142.14092
142.2410;142.24095;0.01624;142.24095
142.3410;142.34098;0.01687;142.34098
142.4410;142.44101;0.01711;142.44101
142.5410;142.54104;0.01712;142.54104
142.6411;142.64107;0.01731;142.64107
142.7411;142.74110;0.01720;142.74110
142.8411;142.84113;0.01767;142.84113
142.9412;142.94115;0.01769;142.94115
143.0412;143.04118;0.01756;143.04118
143.1412;143.14121;0.01771;143.14121
143.2412;143.24124;0.01766;143.24124
143.3413;143.34127;0.01783;143.34127
143.4413;143.44130;0.01776;143.44130
143.5413;143.54133;0.01804;143.54133
143.6414;143.64136;0.01826;143.64136
143.7414;143.74138;0.01817;143.74138
143.8414;143.84141;0.01833;143.84141
143.9414;143.94144;0.01811;143.94144
144.0415;144.04147;0.01830;144.04147
144.1415;144.14150;0.01851;144.14150
144.2415;144.24153;0.01887;144.24153
144.3416;144.34156;0.01832;144.34156
144.4416;144.44159;0.01883;144.44159
144.5416;144.54161;0.01902;144.54161
144.6416;144.64164;0.01915;144.64164
144.7417;144.74167;0.01906;144.74167
144.8417;144.84170;0.01941;144.84170
144.9417;144.94173;0.01926;144.94173
145.0418;145.04176;0.01934;145.04176
145.1418;145.14179;0.01963;145.14179
145.2418;145.24182;0.01962;145.24182
145.3418;145.34185;0.02012;145.34185
145.4419;145.44187;0.02024;145.44187
145.5419;145.54190;0.01989;145.54190
145.6419;145.64193;0.02026;145.64193
145.7420;145.74196;0.02020;145.74196
145.8420;145.84199;0.02068;145.84199
145.9420;145.94202;0.02060;145.94202
146.0420;146.04205;0.02065;146.04205
146.1421;146.14208;0.02090;146.14208
146.2421;146.24210;0.02126;146.24210
146.3421;146.34213;0.02133;146.34213
146.4422;146.44216;0.02144;146.44216
146.5422;146.54219;0.02117;146.54219
146.6422;146.64222;0.02193;146.64222
146.7422;146.74225;0.02155;146.74225
146.8423;146.84228;0.02176;146.84228
146.9423;146.94231;0.02195;146.94231
147.0423;147.04233;0.02195;147.04233
147.1424;147.14236;0.02226;147.14236
147.2424;147.24239;0.02205;147.24239
147.3424;147.34242;0.02209;147.34242
147.4424;147.44245;0.02247;147.44245
147.5425;147.54248;0.02248;147.54248
147.6425;147.64251;0.02268;147.64251
147.7425;147.74254;0.02257;147.74254
147.8426;147.84257;0.02339;147.84257
147.9426;147.94259;0.02326;147.94259
148.0426;148.04262;0.02323;148.04262
148.1427;148.14265;0.02396;148.14265
148.2427;148.24268;0.02387;148.24268
148.3427;148.34271;0.02358;148.34271
148.4427;148.44274;0.02421;148.44274
148.5428;148.54277;0.02440;148.54277
148.6428;148.64280;0.02473;148.64280
148.7428;148.74282;0.02471;148.74282
148.8429;148.84285;0.02503;148.84285
148.9429;148.94288;0.02489;148.94288
149.0429;149.04291;0.02524;149.04291
149.1429;149.14294;0.02496;149.14294
149.2430;149.24297;0.02561;149.24297
149.3430;149.34300;0.02560;149.34300
149.4430;149.44303;0.02602;149.44303
149.5431;149.54305;0.02614;149.54305
149.6431;149.64308;0.02614;149.64308
149.7431;149.74311;0.02624;149.74311
149.8431;149.84314;0.02669;149.84314
149.9432;149.94317;0.02658;149.94317
150.0432;150.04320;0.02692;150.04320
150.1432;150.14323;0.02729;150.14323
150.2433;150.24326;0.02754;150.24326
150.3433;150.34329;0.02795;150.34329
150.4433;150.44331;0.02763;150.44331
150.5433;150.54334;0.02758;150.54334
150.6434;150.64337;0.02795;150.64337
150.7434;150.74340;0.02837;150.74340
150.8434;150.84343;0.02859;150.84343
150.9435;150.94346;0.02845;150.94346
151.0435;151.04349;0.02885;151.04349
151.1435;151.14352;0.02918;151.14352
151.2435;151.24354;0.02922;151.24354
151.3436;151.34357;0.02975;151.34357
151.4436;151.44360;0.02979;151.44360
151.5436;151.54363;0.03009;151.54363
151.6437;151.64366;0.03043;151.64366
151.7437;151.74369;0.03065;151.74369
151.8437;151.84372;0.03051;151.84372
151.9437;151.94375;0.03084;151.94375
152.0438;152.04377;0.03145;152.04377
152.1438;152.14380;0.03136;152.14380
152.2438;152.24383;0.03126;152.24383
152.3439;152.34386;0.03174;152.34386
152.4439;152.44389;0.03220;152.44389
152.5439;152.54392;0.03214;152.54392
152.6439;152.64395;0.03272;152.64395
152.7440;152.74398;0.03283;152.74398
152.8440;152.84400;0.03321;152.84400
152.9440;152.94403;0.03327;152.94403
153.0441;153.04406;0.03362;153.04406
153.1441;153.14409;0.03361;153.14409
153.2441;153.24412;0.03415;153.24412
153.3441;153.34415;0.03395;153.34415
153.4442;153.44418;0.03483;153.44418
153.5442;153.54421;0.03478;153.54421
153.6442;153.64424;0.03489;153.64424
153.7443;153.74426;0.03550;153.74426
153.8443;153.84429;0.03543;153.84429
153.9443;153.94432;0.03586;153.94432
154.0444;154.04435;0.03650;154.04435
154.1444;154.14438;0.03643;154.14438
154.2444;154.24441;0.03677;154.24441
154.3444;154.34444;0.03708;154.34444
154.4445;154.44447;0.03669;154.44447
154.5445;154.54449;0.03725;154.54449
154.6445;154.64452;0.03732;154.64452
154.7446;154.74455;0.03790;154.74455
154.8446;154.84458;0.03821;154.84458
154.9446;154.94461;0.03802;154.94461
155.0446;155.04464;0.03869;155.04464
155.1447;155.14467;0.03904;155.14467
155.2447;155.24470;0.03877;155.24470
155.3447;155.34472;0.03943;155.34472
155.4448;155.44475;0.03980;155.44475
155.5448;155.54478;0.04002;155.54478
155.6448;155.64481;0.04032;155.64481
155.7448;155.74484;0.04010;155.74484
155.8449;155.84487;0.04036;155.84487
155.9449;155.94490;0.04125;155.94490
156.0449;156.04493;0.04140;156.04493
156.1450;156.14496;0.04202;156.14496
156.2450;156.24498;0.04154;156.24498
156.3450;156.34501;0.04220;156.34501
156.4450;156.44504;0.04315;156.44504
156.5451;156.54507;0.04380;156.54507
156.6451;156.64510;0.04417;156.64510
156.7451;156.74513;0.04423;156.74513
156.8452;156.84516;0.04479;156.84516
156.9452;156.94519;0.04573;156.94519
157.0452;157.04521;0.04596;157.04521
157.1452;157.14524;0.04645;157.14524
157.2453;157.24527;0.04724;157.24527
157.3453;157.34530;0.04800;157.34530
157.4453;157.44533;0.04857;157.44533
157.5454;157.54536;0.04939;157.54536
157.6454;157.64539;0.05006;157.64539
157.7454;157.74542;0.05093;157.74542
157.8454;157.84544;0.05182;157.84544
157.9455;157.94547;0.05336;157.94547
158.0455;158.04550;0.05373;158.04550
158.1455;158.14553;0.05555;158.14553
158.2456;158.24556;0.05742;158.24556
158.3456;158.34559;0.05883;158.34559
158.4456;158.44562;0.06215;158.44562
158.5456;158.54565;0.06607;158.54565
158.6457;158.64568;0.07195;158.64568
158.7457;158.74570;0.08151;158.74570
158.8457;158.84573;0.07467;158.84573
158.9458;158.94576;0.07010;158.94576
159.0458;159.04579;0.07320;159.04579
159.1458;159.14582;0.07562;159.14582
159.2458;159.24585;0.07784;159.24585
159.3459;159.34588;0.07925;159.34588
159.4459;159.44591;0.07992;159.44591
159.5459;159.54593;0.08079;159.54593
159.6460;159.64596;0.08134;159.64596
159.7460;159.74599;0.08196;159.74599
159.8460;159.84602;0.08285;159.84602
159.9460;159.94605;0.08212;159.94605
160.0461;160.04608;0.08112;160.04608
160.1461;160.14611;0.08045;160.14611
160.2461;160.24614;0.07943;160.24614
160.3462;160.34616;0.07905;160.34616
160.4462;160.44619;0.07840;160.44619
160.5462;160.54622;0.08016;160.54622
160.6463;160.64625;0.08266;160.64625
160.7463;160.74628;0.08243;160.74628
160.8463;160.84631;0.08053;160.84631
160.9463;160.94634;0.08048;160.94634
161.0464;161.04637;0.07950;161.04637
161.1464;161.14640;0.07959;161.14640
161.2464;161.24642;0.07917;161.24642
161.3465;161.34645;0.07900;161.34645
161.4465;161.44648;0.07892;161.44648
161.5465;161.54651;0.07883;161.54651
161.6465;161.64654;0.07794;161.64654
161.7466;161.74657;0.07789;161.74657
161.8466;161.84660;0.07758;161.84660
161.9466;161.94663;0.07753;161.94663
162.0467;162.04665;0.07759;162.04665
162.1467;162.14668;0.07760;162.14668
162.2467;162.24671;0.07707;162.24671
162.3467;162.34674;0.07634;162.34674
162.4468;162.44677;0.07626;162.44677
162.5468;162.54680;0.07566;162.54680
162.6468;162.64683;0.07570;162.64683
162.7469;162.74686;0.07551;162.74686
162.8469;162.84688;0.07561;162.84688
162.9469;162.94691;0.07550;162.94691
163.0469;163.04694;0.07602;163.04694
163.1470;163.14697;0.07568;163.14697
163.2470;163.24700;0.07483;163.24700
163.3470;163.34703;0.07505;163.34703
163.4471;163.44706;0.07424;163.44706
163.5471;163.54709;0.07498;163.54709
163.6471;163.64712;0.07408;163.64712
163.7471;163.74714;0.07459;163.74714
163.8472;163.84717;0.07432;163.84717
163.9472;163.94720;0.07473;163.94720
164.0472;164.04723;0.07443;164.04723
164.1473;164.14726;0.07414;164.14726
164.2473;164.24729;0.07387;164.24729
164.3473;164.34732;0.07398;164.34732
164.4473;164.44735;0.07432;164.44735
164.5474;164.54737;0.07391;164.54737
164.6474;164.64740;0.07443;164.64740
164.7474;164.74743;0.07443;164.74743
164.8475;164.84746;0.07373;164.84746
164.9475;164.94749;0.07391;164.94749
165.0475;165.04752;0.07386;165.04752
165.1475;165.14755;0.07389;165.14755
165.2476;165.24758;0.07404;165.24758
165.3476;165.34760;0.07397;165.34760
165.4476;165.44763;0.07362;165.44763
165.5477;165.54766;0.07385;165.54766
165.6477;165.64769;0.07382;165.64769
165.7477;165.74772;0.07424;165.74772
165.8477;165.84775;0.07386;165.84775
165.9478;165.94778;0.07348;165.94778
166.0478;166.04781;0.07383;166.04781
166.1478;166.14784;0.07351;166.14784
166.2479;166.24786;0.07412;166.24786
166.3479;166.34789;0.07446;166.34789
166.4479;166.44792;0.07488;166.44792
166.5480;166.54795;0.07474;166.54795
166.6480;166.64798;0.07525;166.64798
166.7480;166.74801;0.07548;166.74801
166.8480;166.84804;0.07518;166.84804
166.9481;166.94807;0.07418;166.94807
167.0481;167.04809;0.07430;167.04809
167.1481;167.14812;0.07428;167.14812
167.2482;167.24815;0.07527;167.24815
167.3482;167.34818;0.07533;167.34818
167.4482;167.44821;0.07534;167.44821
167.5482;167.54824;0.07521;167.54824
167.6483;167.64827;0.07531;167.64827
167.7483;167.74830;0.07552;167.74830
167.8483;167.84832;0.07464;167.84832
167.9484;167.94835;0.07431;167.94835
168.0484;168.04838;0.07384;168.04838
168.1484;168.14841;0.07354;168.14841
168.2484;168.24844;0.07301;168.24844
168.3485;168.34847;0.07335;168.34847
168.4485;168.44850;0.07283;168.44850
168.5485;168.54853;0.07350;168.54853
168.6486;168.64856;0.07333;168.64856
168.7486;168.74858;0.07370;168.74858
168.8486;168.84861;0.07298;168.84861
168.9486;168.94864;0.07319;168.94864
169.0487;169.04867;0.07278;169.04867
169.1487;169.14870;0.07285;169.14870
169.2487;169.24873;0.07228;169.24873
169.3488;169.34876;0.07302;169.34876
169.4488;169.44879;0.07295;169.44879
169.5488;169.54881;0.07306;169.54881
169.6488;169.64884;0.07287;169.64884
169.7489;169.74887;0.07322;169.74887
169.8489;169.84890;0.07287;169.84890
169.9489;169.94893;0.07257;169.94893
170.0490;170.04896;0.07267;170.04896
170.1490;170.14899;0.07219;170.14899
170.2490;170.24902;0.07243;170.24902
170.3490;170.34904;0.07274;170.34904
170.4491;170.44907;0.07269;170.44907
170.5491;170.54910;0.07261;170.54910
170.6491;170.64913;0.07290;170.64913
170.7492;170.74916;0.07388;170.74916
170.8492;170.84919;0.07347;170.84919
170.9492;170.94922;0.07431;170.94922
171.0492;171.04925;0.07422;171.04925
171.1493;171.14928;0.07453;171.14928
171.2493;171.24930;0.07445;171.24930
171.3493;171.34933;0.07458;171.34933
171.4494;171.44936;0.07436;171.44936
171.5494;171.54939;0.07409;171.54939
171.6494;171.64942;0.07471;171.64942
171.7494;171.74945;0.07428;171.74945
171.8495;171.84948;0.07430;171.84948
171.9495;171.94951;0.07342;171.94951
172.0495;172.04953;0.07306;172.04953
172.1496;172.14956;0.07327;172.14956
172.2496;172.24959;0.07274;172.24959
172.3496;172.34962;0.07317;172.34962
172.4496;172.44965;0.07325;172.44965
172.5497;172.54968;0.07307;172.54968
172.6497;172.64971;0.07261;172.64971
172.7497;172.74974;0.07300;172.74974
172.8498;172.84976;0.07255;172.84976
172.9498;172.94979;0.07239;172.94979
173.0498;173.04982;0.07262;173.04982
173.1499;173.14985;0.07288;173.14985
173.2499;173.24988;0.07225;173.24988
173.3499;173.34991;0.07192;173.34991
173.4499;173.44994;0.07247;173.44994
173.5500;173.54997;0.07224;173.54997
173.6500;173.65000;0.07212;173.65000
173.7500;173.75002;0.07210;173.75002
173.8501;173.85005;0.07204;173.85005
173.9501;173.95008;0.07233;173.95008
174.0501;174.05011;0.07214;174.05011
174.1501;174.15014;0.07222;174.15014
174.2502;174.25017;0.07180;174.25017
174.3502;174.35020;0.07194;174.35020
174.4502;174.45023;0.07191;174.45023
174.5503;174.55025;0.07200;174.55025
174.6503;174.65028;0.07277;174.65028
174.7503;174.75031;0.07287;174.75031
174.8503;174.85034;0.07317;174.85034
174.9504;174.95037;0.07236;174.95037
175.0504;175.05040;0.07249;175.05040
175.1504;175.15043;0.07216;175.15043
175.2505;175.25046;0.07240;175.25046
175.3505;175.35048;0.07242;175.35048
175.4505;175.45051;0.07225;175.45051
175.5505;175.55054;0.07238;175.55054
175.6506;175.65057;0.07249;175.65057
175.7506;175.75060;0.07183;175.75060
175.8506;175.85063;0.07189;175.85063
175.9507;175.95066;0.07223;175.95066
176.0507;176.05069;0.07228;176.05069
176.1507;176.15072;0.07243;176.15072
176.2507;176.25074;0.07248;176.25074
176.3508;176.35077;0.07191;176.35077
176.4508;176.45080;0.07213;176.45080
176.5508;176.55083;0.07221;176.55083
176.6509;176.65086;0.07205;176.65086
176.7509;176.75089;0.07193;176.75089
176.8509;176.85092;0.07234;176.85092
176.9509;176.95095;0.07257;176.95095
177.0510;177.05097;0.07270;177.05097
177.1510;177.15100;0.07333;177.15100
177.2510;177.25103;0.07407;177.25103
177.3511;177.35106;0.07390;177.35106
177.4511;177.45109;0.07384;177.45109
177.5511;177.55112;0.07392;177.55112
177.6511;177.65115;0.07417;177.65115
177.7512;177.75118;0.07402;177.75118
177.8512;177.85120;0.07395;177.85120
177.9512;177.95123;0.07402;177.95123
178.0513;178.05126;0.07427;178.05126
178.1513;178.15129;0.07372;178.15129
178.2513;178.25132;0.07380;178.25132
178.3513;178.35135;0.07397;178.35135
178.4514;178.45138;0.07402;178.45138
178.5514;178.55141;0.07406;178.55141
178.6514;178.65144;0.07441;178.65144
178.7515;178.75146;0.07375;178.75146
178.8515;178.85149;0.07383;178.85149
178.9515;178.95152;0.07388;178.95152
179.0516;179.05155;0.07385;179.05155
179.1516;179.15158;0.07385;179.15158
179.2516;179.25161;0.07373;179.25161
179.3516;179.35164;0.07394;179.35164
179.4517;179.45167;0.07371;179.45167
179.5517;179.55169;0.07328;179.55169
179.6517;179.65172;0.07238;179.65172
179.7518;179.75175;0.07215;179.75175
179.8518;179.85178;0.07300;179.85178
179.9518;179.95181;0.07375;179.95181
180.0518;180.05184;0.07354;180.05184
180.1519;180.15187;0.07388;180.15187
180.2519;180.25190;0.07378;180.25190
180.3519;180.35192;0.07372;180.35192
180.4520;180.45195;0.07360;180.45195
180.5520;180.55198;0.07358;180.55198
180.6520;180.65201;0.07362;180.65201
180.7520;180.75204;0.07345;180.75204
180.8521;180.85207;0.07353;180.85207
180.9521;180.95210;0.07366;180.95210
181.0521;181.05213;0.07351;181.05213
181.1522;181.15216;0.07374;181.15216
181.2522;181.25218;0.07350;181.25218
181.3522;181.35221;0.07303;181.35221
181.4522;181.45224;0.07345;181.45224
181.5523;181.55227;0.07384;181.55227
181.6523;181.65230;0.07353;181.65230
181.7523;181.75233;0.07312;181.75233
181.8524;181.85236;0.07344;181.85236
181.9524;181.95239;0.07350;181.95239
182.0524;182.05241;0.07297;182.05241
182.1524;182.15244;0.07258;182.15244
182.2525;182.25247;0.07300;182.25247
182.3525;182.35250;0.07314;182.35250
182.4525;182.45253;0.07337;182.45253
182.5526;182.55256;0.07358;182.55256
182.6526;182.65259;0.07358;182.65259
182.7526;182.75262;0.07375;182.75262
182.8526;182.85264;0.07311;182.85264
182.9527;182.95267;0.07330;182.95267
183.0527;183.05270;0.07348;183.05270
183.1527;183.15273;0.07358;183.15273
183.2528;183.25276;0.07373;183.25276
183.3528;183.35279;0.07355;183.35279
183.4528;183.45282;0.07368;183.45282
183.5528;183.55285;0.07372;183.55285
183.6529;183.65288;0.07310;183.65288
183.7529;183.75290;0.07299;183.75290
183.8529;183.85293;0.07323;183.85293
183.9530;183.95296;0.07335;183.95296
184.0530;184.05299;0.07314;184.05299
184.1530;184.15302;0.07329;184.15302
184.2530;184.25305;0.07368;184.25305
184.3531;184.35308;0.07341;184.35308
184.4531;184.45311;0.07331;184.45311
184.5531;184.55313;0.07362;184.55313
184.6532;184.65316;0.07329;184.65316
184.7532;184.75319;0.07357;184.75319
184.8532;184.85322;0.07347;184.85322
184.9532;184.95325;0.07293;184.95325
185.0533;185.05328;0.07230;185.05328
185.1533;185.15331;0.07213;185.15331
185.2533;185.25334;0.07188;185.25334
185.3534;185.35336;0.07183;185.35336
185.4534;185.45339;0.07129;185.45339
185.5534;185.55342;0.07148;185.55342
185.6535;185.65345;0.07104;185.65345
185.7535;185.75348;0.07147;185.75348
185.8535;185.85351;0.07160;185.85351
185.9535;185.95354;0.07239;185.95354
186.0536;186.05357;0.07274;186.05357
186.1536;186.15360;0.07268;186.15360
186.2536;186.25362;0.07364;186.25362
186.3537;186.35365;0.07372;186.35365
186.4537;186.45368;0.07302;186.45368
186.5537;186.55371;0.07337;186.55371
186.6537;186.65374;0.07322;186.65374
186.7538;186.75377;0.07327;186.75377
186.8538;186.85380;0.07300;186.85380
186.9538;186.95383;0.07339;186.95383
187.0539;187.05385;0.07331;187.05385
187.1539;187.15388;0.07298;187.15388
187.2539;187.25391;0.07305;187.25391
187.3539;187.35394;0.07326;187.35394
187.4540;187.45397;0.07310;187.45397
187.5540;187.55400;0.07297;187.55400
187.6540;187.65403;0.07239;187.65403
187.7541;187.75406;0.07197;187.75406
187.8541;187.85408;0.07189;187.85408
187.9541;187.95411;0.07130;187.95411
188.0541;188.05414;0.07096;188.05414
188.1542;188.15417;0.07112;188.15417
188.2542;188.25420;0.07115;188.25420
188.3542;188.35423;0.07097;188.35423
188.4543;188.45426;0.07085;188.45426
188.5543;188.55429;0.07064;188.55429
188.6543;188.65432;0.07035;188.65432
188.7543;188.75434;0.07089;188.75434
188.8544;188.85437;0.07090;188.85437
188.9544;188.95440;0.07139;188.95440
189.0544;189.05443;0.07197;189.05443
189.1545;189.15446;0.07215;189.15446
189.2545;189.25449;0.07277;189.25449
189.3545;189.35452;0.07266;189.35452
189.4545;189.45455;0.07276;189.45455
189.5546;189.55457;0.07211;189.55457
189.6546;189.65460;0.07203;189.65460
189.7546;189.75463;0.07106;189.75463
189.8547;189.85466;0.07130;189.85466
189.9547;189.95469;0.14688;189.95469
190.0547;190.05472;0.20075;190.05472
190.1547;190.15475;0.22490;190.15475
190.2548;190.25478;0.24278;190.25478
190.3548;190.35480;0.25675;190.35480
190.4548;190.45483;0.26945;190.45483
190.5549;190.55486;0.28116;190.55486
190.6549;190.65489;0.29330;190.65489
190.7549;190.75492;0.30324;190.75492
190.8549;190.85495;0.31286;190.85495
190.9550;190.95498;0.32190;190.95498
191.0550;191.05501;0.33118;191.05501
191.1550;191.15504;0.33994;191.15504
191.2551;191.25506;0.34819;191.25506
191.3551;191.35509;0.35693;191.35509
191.4551;191.45512;0.36582;191.45512
191.5552;191.55515;0.37414;191.55515
191.6552;191.65518;0.38238;191.65518
191.7552;191.75521;0.38998;191.75521
191.8552;191.85524;0.39837;191.85524
191.9553;191.95527;0.40553;191.95527
192.0553;192.05529;0.41147;192.05529
192.1553;192.15532;0.41742;192.15532
192.2554;192.25535;0.42253;192.25535
192.3554;192.35538;0.42714;192.35538
192.4554;192.45541;0.43117;192.45541
192.5554;192.55544;0.43702;192.55544
192.6555;192.65547;0.44189;192.65547
192.7555;192.75550;0.44626;192.75550
192.8555;192.85552;0.45359;192.85552
192.9556;192.95555;0.45715;192.95555
193.0556;193.05558;0.46312;193.05558
193.1556;193.15561;0.46891;193.15561
193.2556;193.25564;0.47408;193.25564
193.3557;193.35567;0.47974;193.35567
193.4557;193.45570;0.48499;193.45570
193.5557;193.55573;0.48886;193.55573
193.6245;193.62446;0.49139;193.62446
193.6558;193.65576;0.49048;193.65576
193.7558;193.75578;0.48651;193.75578
193.8558;193.85581;0.47875;193.85581
193.9558;193.95584;0.47286;193.95584
194.0559;194.05587;0.46709;194.05587
194.1559;194.15590;0.46342;194.15590
194.2559;194.25593;0.45847;194.25593
194.3560;194.35596;0.45687;194.35596
194.4560;194.45599;0.45761;194.45599
194.5560;194.55601;0.45777;194.55601
194.6560;194.65604;0.45815;194.65604
194.7561;194.75607;0.45922;194.75607
194.8561;194.85610;0.46007;194.85610
194.9561;194.95613;0.46094;194.95613
195.0562;195.05616;0.46149;195.05616
195.1562;195.15619;0.46192;195.15619
195.2562;195.25622;0.46270;195.25622
195.3562;195.35624;0.46384;195.35624
195.4563;195.45627;0.46333;195.45627
195.5563;195.55630;0.46315;195.55630
195.6563;195.65633;0.46295;195.65633
195.7564;195.75636;0.46203;195.75636
195.8564;195.85639;0.46160;195.85639
195.9564;195.95642;0.46168;195.95642
196.0564;196.05645;0.46114;196.05645
196.1565;196.15647;0.46071;196.15647
196.2565;196.25650;0.46022;196.25650
196.3565;196.35653;0.46004;196.35653
196.4566;196.45656;0.45973;196.45656
196.5566;196.55659;0.45870;196.55659
196.6566;196.65662;0.45790;196.65662
196.7566;196.75665;0.45763;196.75665
196.8567;196.85668;0.45774;196.85668
196.9567;196.95671;0.45778;196.95671
197.0567;197.05673;0.45673;197.05673
197.1568;197.15676;0.45651;197.15676
197.2568;197.25679;0.45577;197.25679
197.3568;197.35682;0.45510;197.35682
197.4568;197.45685;0.45546;197.45685
197.5569;197.55688;0.45546;197.55688
197.6569;197.65691;0.45371;197.65691
197.7569;197.75694;0.45367;197.75694
197.8570;197.85696;0.45180;197.85696
197.9570;197.95699;0.45264;197.95699
198.0570;198.05702;0.45243;198.05702
198.1571;198.15705;0.45244;198.15705
198.2571;198.25708;0.45257;198.25708
198.3571;198.35711;0.45267;198.35711
198.4571;198.45714;0.45248;198.45714
198.5572;198.55717;0.45249;198.55717
198.6572;198.65719;0.45251;198.65719
198.7572;198.75722;0.45307;198.75722
198.8573;198.85725;0.45232;198.85725
198.9573;198.95728;0.45291;198.95728
199.0573;199.05731;0.45210;199.05731
199.1573;199.15734;0.45305;199.15734
199.2574;199.25737;0.45255;199.25737
199.3574;199.35740;0.45291;199.35740
199.4574;199.45743;0.45219;199.45743
199.5575;199.55745;0.45248;199.55745
199.6575;199.65748;0.45233;199.65748
199.7575;199.75751;0.45103;199.75751
199.8575;199.85754;0.45099;199.85754
199.9576;199.95757;0.45153;199.95757
200.0576;200.05760;0.45114;200.05760
200.1576;200.15763;0.45285;200.15763
200.2577;200.25766;0.45185;200.25766
200.3577;200.35768;0.45165;200.35768
200.4577;200.45771;0.45177;200.45771
200.5577;200.55774;0.45172;200.55774
200.6578;200.65777;0.45223;200.65777
200.7578;200.75780;0.45204;200.75780
200.8578;200.85783;0.45134;200.85783
200.9579;200.95786;0.45139;200.95786
201.0579;201.05789;0.45215;201.05789
201.1579;201.15791;0.45230;201.15791
201.2579;201.25794;0.45216;201.25794
201.3580;201.35797;0.45300;201.35797
201.4580;201.45800;0.45279;201.45800
201.5580;201.55803;0.45295;201.55803
201.6581;201.65806;0.45398;201.65806
201.7581;201.75809;0.45361;201.75809
201.8581;201.85812;0.45394;201.85812
201.9581;201.95815;0.45382;201.95815
202.0582;202.05817;0.45515;202.05817
202.1582;202.15820;0.45527;202.15820
202.2582;202.25823;0.45557;202.25823
202.3583;202.35826;0.45537;202.35826
202.4583;202.45829;0.45517;202.45829
202.5583;202.55832;0.45600;202.55832
202.6583;202.65835;0.45633;202.65835
202.7584;202.75838;0.45644;202.75838
202.8584;202.85840;0.45061;202.85840
202.9584;202.95843;0.36120;202.95843
203.0585;203.05846;0.16635;203.05846
203.0961;203.09609;-0.01917;203.09609
203.1585;203.15849;-0.00233;203.15849
203.2585;203.25852;-0.00170;203.25852
203.3585;203.35855;-0.00166;203.35855
203.4586;203.45858;-0.00202;203.45858
203.5586;203.55861;-0.00197;203.55861
203.6586;203.65863;-0.00205;203.65863
203.7587;203.75866;-0.00233;203.75866
203.8587;203.85869;-0.00231;203.85869
203.9587;203.95872;-0.00271;203.95872
204.0588;204.05875;-0.00277;204.05875
204.1588;204.15878;-0.00260;204.15878
204.2588;204.25881;-0.00263;204.25881
204.3588;204.35884;-0.00276;204.35884
204.4589;204.45887;-0.00262;204.45887
204.5589;204.55889;-0.00245;204.55889
204.6589;204.65892;-0.00257;204.65892
204.7590;204.75895;-0.00246;204.75895
204.8590;204.85898;-0.00262;204.85898
204.9590;204.95901;-0.00277;204.95901
205.0590;205.05904;-0.00273;205.05904
205.1591;205.15907;-0.00248;205.15907
205.2591;205.25910;-0.00280;205.25910
205.3591;205.35912;-0.00289;205.35912
205.4592;205.45915;-0.00288;205.45915
205.5592;205.55918;-0.00312;205.55918
205.6592;205.65921;-0.00311;205.65921
205.7592;205.75924;-0.00290;205.75924
205.8593;205.85927;-0.00338;205.85927
205.9593;205.95930;-0.00317;205.95930
206.0593;206.05933;-0.00291;206.05933
206.1594;206.15935;-0.00278;206.15935
206.2594;206.25938;-0.00298;206.25938
206.3594;206.35941;-0.00271;206.35941
206.4594;206.45944;-0.00264;206.45944
206.5595;206.55947;-0.00315;206.55947
206.6595;206.65950;-0.00264;206.65950
206.7595;206.75953;-0.00264;206.75953
206.8596;206.85956;-0.00285;206.85956
206.9596;206.95959;-0.00327;206.95959
207.0596;207.05961;-0.00229;207.05961
207.1596;207.15964;-0.00323;207.15964
207.2597;207.25967;-0.00323;207.25967
207.3597;207.35970;-0.00306;207.35970
207.4597;207.45973;-0.00297;207.45973
207.5598;207.55976;-0.00290;207.55976
207.6598;207.65979;-0.00338;207.65979
207.7598;207.75982;-0.00309;207.75982
207.8598;207.85984;-0.00288;207.85984
207.9599;207.95987;-0.00281;207.95987
208.0599;208.05990;-0.00307;208.05990
208.1599;208.15993;-0.00326;208.15993
208.2600;208.25996;-0.00292;208.25996
208.3600;208.35999;-0.00268;208.35999
208.4600;208.46002;-0.00267;208.46002
208.5600;208.56005;-0.00298;208.56005
208.6601;208.66007;-0.00328;208.66007
208.7601;208.76010;-0.00313;208.76010
208.8601;208.86013;-0.00318;208.86013
208.9602;208.96016;-0.00351;208.96016
209.0602;209.06019;-0.00290;209.06019
209.1602;209.16022;-0.00268;209.16022
209.2602;209.26025;-0.00297;209.26025
209.3603;209.36028;-0.00282;209.36028
209.4603;209.46031;-0.00298;209.46031
209.5603;209.56033;-0.00279;209.56033
209.6604;209.66036;-0.00304;209.66036
209.7604;209.76039;-0.00308;209.76039
209.8604;209.86042;-0.00304;209.86042
209.9604;209.96045;-0.00311;209.96045
210.0605;210.06048;-0.00334;210.06048
210.1605;210.16051;-0.00313;210.16051
210.2605;210.26054;-0.00321;210.26054
210.3606;210.36056;-0.00311;210.36056
210.4606;210.46059;-0.00282;210.46059
210.5606;210.56062;-0.00324;210.56062
210.6607;210.66065;-0.00295;210.66065
210.7607;210.76068;-0.00315;210.76068
210.8607;210.86071;-0.00304;210.86071
210.9607;210.96074;-0.00279;210.96074
211.0608;211.06077;-0.00294;211.06077
211.1608;211.16079;-0.00313;211.16079
211.2608;211.26082;-0.00289;211.26082
211.3609;211.36085;-0.00297;211.36085
211.4609;211.46088;-0.00323;211.46088
211.5609;211.56091;-0.00322;211.56091
211.6609;211.66094;-0.00298;211.66094
211.7610;211.76097;-0.00341;211.76097
211.8610;211.86100;-0.00322;211.86100
211.9610;211.96103;-0.00316;211.96103
212.0611;212.06105;-0.00299;212.06105
212.1611;212.16108;-0.00308;212.16108
212.2611;212.26111;-0.00318;212.26111
212.3611;212.36114;-0.00301;212.36114
212.4612;212.46117;-0.00319;212.46117
212.5612;212.56120;-0.00335;212.56120
212.6612;212.66123;-0.00283;212.66123
212.7613;212.76126;-0.00299;212.76126
212.8613;212.86128;-0.00319;212.86128
212.9613;212.96131;-0.00337;212.96131
213.0613;213.06134;-0.00338;213.06134
213.1614;213.16137;-0.00332;213.16137
213.2614;213.26140;-0.00359;213.26140
213.3614;213.36143;-0.00312;213.36143
213.4615;213.46146;-0.00295;213.46146
213.5615;213.56149;-0.00283;213.56149
213.6615;213.66151;-0.00309;213.66151
213.7615;213.76154;-0.00336;213.76154
213.8616;213.86157;-0.00298;213.86157
213.9616;213.96160;-0.00369;213.96160
214.0616;214.06163;-0.00309;214.06163
214.1617;214.16166;-0.00319;214.16166
214.2617;214.26169;-0.00282;214.26169
214.3617;214.36172;-0.00322;214.36172
214.4617;214.46175;-0.00328;214.46175
214.5618;214.56177;-0.00298;214.56177
214.6618;214.66180;-0.00338;214.66180
214.7618;214.76183;-0.00318;214.76183
214.8619;214.86186;-0.00350;214.86186
214.9619;214.96189;-0.00326;214.96189
215.0619;215.06192;-0.00316;215.06192
215.1619;215.16195;-0.00321;215.16195
215.2620;215.26198;-0.00281;215.26198
215.3620;215.36200;-0.00284;215.36200
215.4620;215.46203;-0.00319;215.46203
215.5621;215.56206;-0.00305;215.56206
215.6621;215.66209;-0.00329;215.66209
215.7621;215.76212;-0.00335;215.76212
215.8621;215.86215;-0.00352;215.86215
215.9622;215.96218;-0.00354;215.96218
216.0622;216.06221;-0.00326;216.06221
216.1622;216.16223;-0.00350;216.16223
216.2623;216.26226;-0.00317;216.26226
216.3623;216.36229;-0.00292;216.36229
216.4623;216.46232;-0.00316;216.46232
216.5624;216.56235;-0.00305;216.56235
216.6624;216.66238;-0.00332;216.66238
216.7624;216.76241;-0.00321;216.76241
216.8624;216.86244;-0.00313;216.86244
216.9625;216.96247;-0.00378;216.96247
217.0625;217.06249;-0.00325;217.06249
217.1625;217.16252;-0.00313;217.16252
217.2626;217.26255;-0.00341;217.26255
217.3626;217.36258;-0.00334;217.36258
217.4626;217.46261;-0.00339;217.46261
217.5626;217.56264;-0.00367;217.56264
217.6627;217.66267;-0.00352;217.66267
217.7627;217.76270;-0.00362;217.76270
217.8627;217.86272;-0.00345;217.86272
217.9628;217.96275;-0.00333;217.96275
218.0628;218.06278;-0.00323;218.06278
218.1628;218.16281;-0.00351;218.16281
218.2628;218.26284;-0.00323;218.26284
218.3629;218.36287;-0.00364;218.36287
218.4629;218.46290;-0.00331;218.46290
218.5629;218.56293;-0.00344;218.56293
218.6630;218.66295;-0.00352;218.66295
218.7630;218.76298;-0.00341;218.76298
218.8630;218.86301;-0.00323;218.86301
218.9630;218.96304;-0.00329;218.96304
219.0631;219.06307;-0.00311;219.06307
219.1631;219.16310;-0.00347;219.16310
219.2631;219.26313;-0.00325;219.26313
219.3632;219.36316;-0.00313;219.36316
219.4632;219.46319;-0.00309;219.46319
219.5632;219.56321;-0.00312;219.56321
219.6632;219.66324;-0.00338;219.66324
219.7633;219.76327;-0.00307;219.76327
219.8633;219.86330;-0.00311;219.86330
219.9633;219.96333;-0.00311;219.96333
220.0634;220.06336;-0.00302;220.06336
220.1634;220.16339;-0.00314;220.16339
220.2634;220.26342;-0.00302;220.26342
220.3634;220.36344;-0.00306;220.36344
220.4635;220.46347;-0.00366;220.46347
220.5635;220.56350;-0.00328;220.56350
220.6635;220.66353;-0.00323;220.66353
220.7636;220.76356;-0.00364;220.76356
220.8636;220.86359;-0.00322;220.86359
220.9636;220.96362;-0.00315;220.96362
221.0636;221.06365;-0.00289;221.06365
221.1637;221.16367;-0.00308;221.16367
221.2637;221.26370;-0.00266;221.26370
221.3637;221.36373;-0.00045;221.36373
221.4638;221.46376;-0.00045;221.46376
221.5638;221.56379;-0.00066;221.56379
221.6638;221.66382;-0.00089;221.66382
221.7527;221.75271;-0.00040;221.75271










Sequence Editor;
Main;Label;LABEL;1;
;Home position;HOME_POSITION;Reference;ABSOLUTE;Position;0.00;mm;User;SPEED;0.000;mm/s;User;Max. force;0.000;Kn;User;Min. force;0.000;Kn;User;
;Sequence end;SEQUENCE_END;
Sub.1;Label;LABEL;1;
Sub.2;Label;LABEL;1;
Sub.3;Label;LABEL;1;
